Frequency (Hz),PSD (dBfs)
93000000.0,-80.45529
93010000.0,-80.47096
93020000.0,-80.49549
93030000.0,-80.50506
93040000.0,-80.47609
93050000.0,-80.51097
93060000.0,-80.56024
93070000.0,-80.54145
93080000.0,-80.4931
93090000.0,-80.45709
93100000.0,-80.476265
93110000.0,-80.47661
93120000.0,-80.486
93130000.0,-80.49565
93140000.0,-80.454956
93150000.0,-80.49439
93160000.0,-80.47001
93170000.0,-80.479706
93180000.0,-80.49982
93190000.0,-80.50243
93200000.0,-80.51729
93210000.0,-80.5038
93220000.0,-80.512985
93230000.0,-80.48494
93240000.0,-80.49011
93250000.0,-80.49655
93260000.0,-80.54489
93270000.0,-80.487274
93280000.0,-80.51404
93290000.0,-80.52867
93300000.0,-80.495384
93310000.0,-80.5283
93320000.0,-80.50655
93330000.0,-80.492935
93340000.0,-80.500534
93350000.0,-80.50681
93360000.0,-80.48239
93370000.0,-80.48369
93380000.0,-80.47653
93390000.0,-80.49622
93400000.0,-80.48496
93410000.0,-80.51136
93420000.0,-80.533
93430000.0,-80.470955
93440000.0,-80.48462
93450000.0,-80.52435
93460000.0,-80.60317
93470000.0,-80.55027
93480000.0,-80.44137
93490000.0,-80.47052
93500000.0,-80.50468
93510000.0,-80.50476
93520000.0,-80.48392
93530000.0,-80.48606
93540000.0,-80.54224
93550000.0,-80.54906
93560000.0,-80.50687
93570000.0,-80.47383
93580000.0,-80.52949
93590000.0,-80.52475
93600000.0,-80.503914
93610000.0,-80.50629
93620000.0,-80.56094
93630000.0,-80.47037
93640000.0,-80.524506
93650000.0,-80.56578
93660000.0,-80.52987
93670000.0,-80.53061
93680000.0,-80.525375
93690000.0,-80.56468
93700000.0,-80.50492
93710000.0,-80.483765
93720000.0,-80.44379
93730000.0,-80.4665
93740000.0,-80.488815
93750000.0,-80.49278
93760000.0,-80.540016
93770000.0,-80.559685
93780000.0,-80.53183
93790000.0,-80.49019
93800000.0,-80.54193
93810000.0,-80.56691
93820000.0,-80.55371
93830000.0,-80.52708
93840000.0,-80.52163
93850000.0,-80.535446
93860000.0,-80.54927
93870000.0,-80.57746
93880000.0,-80.53741
93890000.0,-80.50116
93900000.0,-80.49405
93910000.0,-80.5186
93920000.0,-80.504524
93930000.0,-80.48128
93940000.0,-80.46863
93950000.0,-80.45617
93960000.0,-80.49323
93970000.0,-80.53307
93980000.0,-80.483505
93990000.0,-80.42842
94000000.0,-80.37399
94010000.0,-80.49335
94020000.0,-80.50248
94030000.0,-80.484116
94040000.0,-80.49935
94050000.0,-80.516846
94060000.0,-80.46092
94070000.0,-80.46726
94080000.0,-80.50647
94090000.0,-80.536766
94100000.0,-80.52701
94110000.0,-80.487335
94120000.0,-80.45679
94130000.0,-80.51452
94140000.0,-80.53673
94150000.0,-80.5214
94160000.0,-80.520134
94170000.0,-80.508255
94180000.0,-80.511475
94190000.0,-80.52273
94200000.0,-80.542366
94210000.0,-80.55503
94220000.0,-80.540924
94230000.0,-80.527756
94240000.0,-80.503555
94250000.0,-80.449745
94260000.0,-80.48958
94270000.0,-80.53849
94280000.0,-80.51756
94290000.0,-80.501205
94300000.0,-80.493935
94310000.0,-80.506226
94320000.0,-80.51628
94330000.0,-80.464615
94340000.0,-80.498535
94350000.0,-80.4699
94360000.0,-80.47504
94370000.0,-80.46945
94380000.0,-80.4393
94390000.0,-80.48721
94400000.0,-80.507935
94410000.0,-80.498215
94420000.0,-80.50874
94430000.0,-80.4562
94440000.0,-80.482704
94450000.0,-80.50775
94460000.0,-80.534454
94470000.0,-80.49141
94480000.0,-80.537796
94490000.0,-80.525696
94500000.0,-80.52724
94510000.0,-80.4781
94520000.0,-80.486824
94530000.0,-80.512695
94540000.0,-80.53816
94550000.0,-80.53537
94560000.0,-80.48099
94570000.0,-80.47408
94580000.0,-80.49637
94590000.0,-80.50484
94600000.0,-80.51186
94610000.0,-80.4787
94620000.0,-80.491035
94630000.0,-80.58836
94640000.0,-80.565094
94650000.0,-80.54264
94660000.0,-80.49178
94670000.0,-80.44724
94680000.0,-80.49796
94690000.0,-80.49243
94700000.0,-80.55515
94710000.0,-80.56672
94720000.0,-80.5696
94730000.0,-80.54469
94740000.0,-80.4682
94750000.0,-80.45716
94760000.0,-80.46527
94770000.0,-80.504875
94780000.0,-80.58071
94790000.0,-80.51759
94800000.0,-80.50286
94810000.0,-80.54236
94820000.0,-80.55206
94830000.0,-80.541115
94840000.0,-80.557335
94850000.0,-80.57496
94860000.0,-80.59207
94870000.0,-80.57435
94880000.0,-80.47252
94890000.0,-80.44734
94900000.0,-80.45905
94910000.0,-80.48511
94920000.0,-80.53112
94930000.0,-80.54692
94940000.0,-80.4893
94950000.0,-80.47471
94960000.0,-80.53212
94970000.0,-80.50093
94980000.0,-80.5173
94990000.0,-80.526245
95000000.0,-80.50304
95010000.0,-80.521324
95020000.0,-80.51715
95030000.0,-80.56741
95040000.0,-80.50996
95050000.0,-80.5161
95060000.0,-80.4914
95070000.0,-80.52353
95080000.0,-80.467514
95090000.0,-80.47309
95100000.0,-80.49861
95110000.0,-80.49396
95120000.0,-80.53321
95130000.0,-80.53939
95140000.0,-80.47515
95150000.0,-80.51131
95160000.0,-80.5562
95170000.0,-80.551384
95180000.0,-80.56251
95190000.0,-80.51445
95200000.0,-80.502686
95210000.0,-80.49394
95220000.0,-80.54221
95230000.0,-80.564316
95240000.0,-80.522545
95250000.0,-80.484474
95260000.0,-80.5143
95270000.0,-80.508286
95280000.0,-80.54641
95290000.0,-80.54681
95300000.0,-80.51842
95310000.0,-80.5124
95320000.0,-80.50129
95330000.0,-80.472946
95340000.0,-80.43761
95350000.0,-80.48566
95360000.0,-80.54577
95370000.0,-80.5298
95380000.0,-80.52029
95390000.0,-80.50335
95400000.0,-80.46448
95410000.0,-80.48813
95420000.0,-80.533905
95430000.0,-80.53676
95440000.0,-80.53076
95450000.0,-80.52932
95460000.0,-80.51668
95470000.0,-80.475555
95480000.0,-80.49313
95490000.0,-80.52361
95500000.0,-80.53853
95510000.0,-80.50021
95520000.0,-80.512405
95530000.0,-80.541016
95540000.0,-80.519554
95550000.0,-80.527306
95560000.0,-80.52642
95570000.0,-80.46866
95580000.0,-80.45625
95590000.0,-80.50174
95600000.0,-80.54912
95610000.0,-80.50312
95620000.0,-80.488434
95630000.0,-80.4723
95640000.0,-80.45468
95650000.0,-80.378685
95660000.0,-80.25654
95670000.0,-80.09636
95680000.0,-79.821075
95690000.0,-79.48029
95700000.0,-79.32634
95710000.0,-79.80309
95720000.0,-80.304474
95730000.0,-80.444336
95740000.0,-80.510345
95750000.0,-80.52113
95760000.0,-80.49077
95770000.0,-80.54007
95780000.0,-80.55322
95790000.0,-80.47629
95800000.0,-80.48326
95810000.0,-80.4667
95820000.0,-80.55923
95830000.0,-80.56732
95840000.0,-80.53854
95850000.0,-80.579025
95860000.0,-80.510605
95870000.0,-80.45087
95880000.0,-80.48119
95890000.0,-80.5446
95900000.0,-80.53125
95910000.0,-80.43248
95920000.0,-80.48011
95930000.0,-80.52229
95940000.0,-80.511826
95950000.0,-80.48918
95960000.0,-80.48575
95970000.0,-80.52201
95980000.0,-80.53294
95990000.0,-80.485146
96000000.0,-80.54428
96010000.0,-80.55403
96020000.0,-80.53725
96030000.0,-80.519714
96040000.0,-80.486115
96050000.0,-80.547516
96060000.0,-80.55481
96070000.0,-80.490814
96080000.0,-80.47475
96090000.0,-80.5331
96100000.0,-80.5333
96110000.0,-80.51689
96120000.0,-80.51607
96130000.0,-80.48911
96140000.0,-80.47001
96150000.0,-80.51324
96160000.0,-80.50317
96170000.0,-80.4932
96180000.0,-80.497955
96190000.0,-80.459625
96200000.0,-80.43786
96210000.0,-80.49862
96220000.0,-80.49282
96230000.0,-80.48562
96240000.0,-80.502716
96250000.0,-80.49316
96260000.0,-80.46996
96270000.0,-80.46166
96280000.0,-80.434425
96290000.0,-80.462006
96300000.0,-80.41976
96310000.0,-80.404724
96320000.0,-80.44595
96330000.0,-80.44461
96340000.0,-80.445496
96350000.0,-80.453964
96360000.0,-80.46912
96370000.0,-80.500786
96380000.0,-80.51876
96390000.0,-80.48069
96400000.0,-80.50446
96410000.0,-80.60733
96420000.0,-80.56816
96430000.0,-80.51477
96440000.0,-80.53898
96450000.0,-80.5167
96460000.0,-80.54718
96470000.0,-80.5365
96480000.0,-80.50116
96490000.0,-80.47318
96500000.0,-80.49255
96510000.0,-80.51415
96520000.0,-80.53523
96530000.0,-80.55444
96540000.0,-80.551796
96550000.0,-80.55012
96560000.0,-80.532906
96570000.0,-80.539444
96580000.0,-80.55531
96590000.0,-80.53667
96600000.0,-80.457016
96610000.0,-80.477715
96620000.0,-80.51822
96630000.0,-80.55502
96640000.0,-80.52835
96650000.0,-80.5027
96660000.0,-80.51415
96670000.0,-80.50508
96680000.0,-80.46749
96690000.0,-80.48687
96700000.0,-80.501755
96710000.0,-80.54799
96720000.0,-80.564
96730000.0,-80.556595
96740000.0,-80.57496
96750000.0,-80.55025
96760000.0,-80.53631
96770000.0,-80.57544
96780000.0,-80.550316
96790000.0,-80.56186
96800000.0,-80.535164
96810000.0,-80.53255
96820000.0,-80.51701
96830000.0,-80.5255
96840000.0,-80.51094
96850000.0,-80.55182
96860000.0,-80.5444
96870000.0,-80.503845
96880000.0,-80.50129
96890000.0,-80.5314
96900000.0,-80.529236
96910000.0,-80.54617
96920000.0,-80.53097
96930000.0,-80.522575
96940000.0,-80.53771
96950000.0,-80.55069
96960000.0,-80.52374
96970000.0,-80.53033
96980000.0,-80.54267
96990000.0,-80.4541
97000000.0,-80.29853
97010000.0,-80.45297
97020000.0,-80.501114
97030000.0,-80.56354
97040000.0,-80.560684
97050000.0,-80.53815
97060000.0,-80.5262
97070000.0,-80.53771
97080000.0,-80.54686
97090000.0,-80.55771
97100000.0,-80.571884
97110000.0,-80.51576
97120000.0,-80.47759
97130000.0,-80.542915
97140000.0,-80.5759
97150000.0,-80.49175
97160000.0,-80.518196
97170000.0,-80.56049
97180000.0,-80.526505
97190000.0,-80.53876
97200000.0,-80.51285
97210000.0,-80.54283
97220000.0,-80.54428
97230000.0,-80.556625
97240000.0,-80.52367
97250000.0,-80.53344
97260000.0,-80.53687
97270000.0,-80.53912
97280000.0,-80.483215
97290000.0,-80.49559
97300000.0,-80.54419
97310000.0,-80.54928
97320000.0,-80.557526
97330000.0,-80.57861
97340000.0,-80.55754
97350000.0,-80.49945
97360000.0,-80.54324
97370000.0,-80.55229
97380000.0,-80.59061
97390000.0,-80.549805
97400000.0,-80.566574
97410000.0,-80.54687
97420000.0,-80.57521
97430000.0,-80.59256
97440000.0,-80.57027
97450000.0,-80.52311
97460000.0,-80.51634
97470000.0,-80.54661
97480000.0,-80.57781
97490000.0,-80.53342
97500000.0,-80.60304
97510000.0,-80.56642
97520000.0,-80.560844
97530000.0,-80.54946
97540000.0,-80.57755
97550000.0,-80.59027
97560000.0,-80.5347
97570000.0,-80.51835
97580000.0,-80.57275
97590000.0,-80.5597
97600000.0,-80.56316
97610000.0,-80.59261
97620000.0,-80.59567
97630000.0,-80.56004
97640000.0,-80.53456
97650000.0,-80.540535
97660000.0,-80.51968
97670000.0,-80.558105
97680000.0,-80.5745
97690000.0,-80.51973
97700000.0,-80.55144
97710000.0,-80.57633
97720000.0,-80.54863
97730000.0,-80.56355
97740000.0,-80.54902
97750000.0,-80.52641
97760000.0,-80.48865
97770000.0,-80.54027
97780000.0,-80.51039
97790000.0,-80.52318
97800000.0,-80.54556
97810000.0,-80.494995
97820000.0,-80.52483
97830000.0,-80.54054
97840000.0,-80.54417
97850000.0,-80.55923
97860000.0,-80.60242
97870000.0,-80.57364
97880000.0,-80.546234
97890000.0,-80.548004
97900000.0,-80.57929
97910000.0,-80.594986
97920000.0,-80.59427
97930000.0,-80.61992
97940000.0,-80.60967
97950000.0,-80.57193
97960000.0,-80.540245
97970000.0,-80.57068
97980000.0,-80.54451
97990000.0,-80.513794
98000000.0,-80.44083
98010000.0,-80.545715
98020000.0,-80.49282
98030000.0,-80.50213
98040000.0,-80.54204
98050000.0,-80.53651
98060000.0,-80.50763
98070000.0,-80.51487
98080000.0,-80.600624
98090000.0,-80.603
98100000.0,-80.53216
98110000.0,-80.53407
98120000.0,-80.53421
98130000.0,-80.54718
98140000.0,-80.60118
98150000.0,-80.54809
98160000.0,-80.520515
98170000.0,-80.528725
98180000.0,-80.51758
98190000.0,-80.49183
98200000.0,-80.57225
98210000.0,-80.54001
98220000.0,-80.56999
98230000.0,-80.61336
98240000.0,-80.54945
98250000.0,-80.529144
98260000.0,-80.55844
98270000.0,-80.58388
98280000.0,-80.531075
98290000.0,-80.53178
98300000.0,-80.53666
98310000.0,-80.511665
98320000.0,-80.568115
98330000.0,-80.56883
98340000.0,-80.59933
98350000.0,-80.5799
98360000.0,-80.58206
98370000.0,-80.59163
98380000.0,-80.61988
98390000.0,-80.55444
98400000.0,-80.50624
98410000.0,-80.548935
98420000.0,-80.603775
98430000.0,-80.636734
98440000.0,-80.61919
98450000.0,-80.5592
98460000.0,-80.58953
98470000.0,-80.59343
98480000.0,-80.57852
98490000.0,-80.57949
98500000.0,-80.56259
98510000.0,-80.5744
98520000.0,-80.55176
98530000.0,-80.5313
98540000.0,-80.60408
98550000.0,-80.6372
98560000.0,-80.62804
98570000.0,-80.593834
98580000.0,-80.568375
98590000.0,-80.58525
98600000.0,-80.594475
98610000.0,-80.619576
98620000.0,-80.634384
98630000.0,-80.59783
98640000.0,-80.587494
98650000.0,-80.606415
98660000.0,-80.61242
98670000.0,-80.62639
98680000.0,-80.5832
98690000.0,-80.5564
98700000.0,-80.585976
98710000.0,-80.57346
98720000.0,-80.56588
98730000.0,-80.58421
98740000.0,-80.556564
98750000.0,-80.60375
98760000.0,-80.626564
98770000.0,-80.55892
98780000.0,-80.56691
98790000.0,-80.54925
98800000.0,-80.548485
98810000.0,-80.570526
98820000.0,-80.5827
98830000.0,-80.60365
98840000.0,-80.58056
98850000.0,-80.65502
98860000.0,-80.61375
98870000.0,-80.58493
98880000.0,-80.58948
98890000.0,-80.57771
98900000.0,-80.57463
98910000.0,-80.600586
98920000.0,-80.57587
98930000.0,-80.56094
98940000.0,-80.56601
98950000.0,-80.56409
98960000.0,-80.580795
98970000.0,-80.596756
98980000.0,-80.5936
98990000.0,-80.523415
99000000.0,-80.305016
99010000.0,-80.473206
99020000.0,-80.56792
99030000.0,-80.5693
99040000.0,-80.5873
99050000.0,-80.59865
99060000.0,-80.60521
99070000.0,-80.594864
99080000.0,-80.61305
99090000.0,-80.60967
99100000.0,-80.56009
99110000.0,-80.61006
99120000.0,-80.60337
99130000.0,-80.59404
99140000.0,-80.60975
99150000.0,-80.577805
99160000.0,-80.59161
99170000.0,-80.64244
99180000.0,-80.631744
99190000.0,-80.58894
99200000.0,-80.57939
99210000.0,-80.60823
99220000.0,-80.62311
99230000.0,-80.597046
99240000.0,-80.567924
99250000.0,-80.577255
99260000.0,-80.5959
99270000.0,-80.62352
99280000.0,-80.570526
99290000.0,-80.5676
99300000.0,-80.57377
99310000.0,-80.55037
99320000.0,-80.60345
99330000.0,-80.587036
99340000.0,-80.5892
99350000.0,-80.577934
99360000.0,-80.5838
99370000.0,-80.659706
99380000.0,-80.62277
99390000.0,-80.63873
99400000.0,-80.60239
99410000.0,-80.65764
99420000.0,-80.61574
99430000.0,-80.59861
99440000.0,-80.53422
99450000.0,-80.548004
99460000.0,-80.61513
99470000.0,-80.6292
99480000.0,-80.61862
99490000.0,-80.584785
99500000.0,-80.567894
99510000.0,-80.63521
99520000.0,-80.64933
99530000.0,-80.683426
99540000.0,-80.64386
99550000.0,-80.642334
99560000.0,-80.6271
99570000.0,-80.597755
99580000.0,-80.579254
99590000.0,-80.591194
99600000.0,-80.60782
99610000.0,-80.56985
99620000.0,-80.57773
99630000.0,-80.5883
99640000.0,-80.54431
99650000.0,-80.53874
99660000.0,-80.53552
99670000.0,-80.62045
99680000.0,-80.55612
99690000.0,-80.42949
99700000.0,-80.35582
99710000.0,-80.2173
99720000.0,-80.11971
99730000.0,-80.157936
99740000.0,-80.24484
99750000.0,-80.36445
99760000.0,-80.449524
99770000.0,-80.58575
99780000.0,-80.576515
99790000.0,-80.562546
99800000.0,-80.59884
99810000.0,-80.6494
99820000.0,-80.68073
99830000.0,-80.65259
99840000.0,-80.61656
99850000.0,-80.65514
99860000.0,-80.62481
99870000.0,-80.591064
99880000.0,-80.62611
99890000.0,-80.59086
99900000.0,-80.590576
99910000.0,-80.58941
99920000.0,-80.601006
99930000.0,-80.592255
99940000.0,-80.64096
99950000.0,-80.59556
99960000.0,-80.55536
99970000.0,-80.656975
99980000.0,-80.67671
99990000.0,-78.5624
100000000.0,-75.2296
100010000.0,-78.51703
100020000.0,-80.64735
100030000.0,-80.65365
100040000.0,-80.609024
100050000.0,-80.59551
100060000.0,-80.599915
100070000.0,-80.60294
100080000.0,-80.679855
100090000.0,-80.60416
100100000.0,-80.634125
100110000.0,-80.64137
100120000.0,-80.601654
100130000.0,-80.57854
100140000.0,-80.66468
100150000.0,-80.67787
100160000.0,-80.6939
100170000.0,-80.63827
100180000.0,-80.64772
100190000.0,-80.659904
100200000.0,-80.68811
100210000.0,-80.66739
100220000.0,-80.61638
100230000.0,-80.57527
100240000.0,-80.533966
100250000.0,-80.43021
100260000.0,-80.282394
100270000.0,-80.17699
100280000.0,-80.11946
100290000.0,-79.92728
100300000.0,-79.78416
100310000.0,-79.82835
100320000.0,-80.02144
100330000.0,-80.252625
100340000.0,-80.45183
100350000.0,-80.57703
100360000.0,-80.61287
100370000.0,-80.59173
100380000.0,-80.567444
100390000.0,-80.611946
100400000.0,-80.62445
100410000.0,-80.66554
100420000.0,-80.65155
100430000.0,-80.63767
100440000.0,-80.64145
100450000.0,-80.62725
100460000.0,-80.57764
100470000.0,-80.61682
100480000.0,-80.62705
100490000.0,-80.653076
100500000.0,-80.65724
100510000.0,-80.59749
100520000.0,-80.5979
100530000.0,-80.658325
100540000.0,-80.6672
100550000.0,-80.693954
100560000.0,-80.7057
100570000.0,-80.66289
100580000.0,-80.676865
100590000.0,-80.64945
100600000.0,-80.67578
100610000.0,-80.6266
100620000.0,-80.59862
100630000.0,-80.65823
100640000.0,-80.677376
100650000.0,-80.65151
100660000.0,-80.67462
100670000.0,-80.65779
100680000.0,-80.6665
100690000.0,-80.6244
100700000.0,-80.61578
100710000.0,-80.58467
100720000.0,-80.57231
100730000.0,-80.6361
100740000.0,-80.687065
100750000.0,-80.647896
100760000.0,-80.60693
100770000.0,-80.63138
100780000.0,-80.60631
100790000.0,-80.606
100800000.0,-80.61772
100810000.0,-80.652626
100820000.0,-80.647736
100830000.0,-80.66204
100840000.0,-80.67173
100850000.0,-80.68082
100860000.0,-80.69675
100870000.0,-80.702065
100880000.0,-80.65747
100890000.0,-80.648796
100900000.0,-80.624084
100910000.0,-80.65461
100920000.0,-80.63775
100930000.0,-80.661995
100940000.0,-80.67039
100950000.0,-80.67244
100960000.0,-80.62515
100970000.0,-80.613365
100980000.0,-80.63901
100990000.0,-80.65344
101000000.0,-80.6126
101010000.0,-80.60785
101020000.0,-80.63719
101030000.0,-80.63612
101040000.0,-80.636635
101050000.0,-80.662445
101060000.0,-80.69028
101070000.0,-80.635155
101080000.0,-80.63025
101090000.0,-80.69657
101100000.0,-80.68669
101110000.0,-80.67749
101120000.0,-80.62892
101130000.0,-80.60851
101140000.0,-80.64534
101150000.0,-80.673416
101160000.0,-80.654594
101170000.0,-80.65833
101180000.0,-80.552734
101190000.0,-80.53317
101200000.0,-80.50979
101210000.0,-80.55951
101220000.0,-80.625984
101230000.0,-80.62766
101240000.0,-80.60672
101250000.0,-80.669975
101260000.0,-80.715065
101270000.0,-80.6461
101280000.0,-80.6198
101290000.0,-80.64227
101300000.0,-80.653305
101310000.0,-80.618324
101320000.0,-80.61828
101330000.0,-80.68254
101340000.0,-80.696594
101350000.0,-80.67276
101360000.0,-80.6443
101370000.0,-80.650375
101380000.0,-80.71159
101390000.0,-80.67369
101400000.0,-80.6762
101410000.0,-80.690544
101420000.0,-80.69588
101430000.0,-80.617516
101440000.0,-80.60362
101450000.0,-80.60807
101460000.0,-80.60764
101470000.0,-80.62324
101480000.0,-80.67379
101490000.0,-80.64856
101500000.0,-80.64041
101510000.0,-80.69855
101520000.0,-80.75174
101530000.0,-80.68941
101540000.0,-80.69748
101550000.0,-80.64111
101560000.0,-80.693825
101570000.0,-80.6731
101580000.0,-80.61478
101590000.0,-80.67783
101600000.0,-80.69862
101610000.0,-80.69496
101620000.0,-80.68689
101630000.0,-80.65285
101640000.0,-80.592606
101650000.0,-80.60081
101660000.0,-80.57478
101670000.0,-80.51007
101680000.0,-80.373314
101690000.0,-80.29563
101700000.0,-80.13775
101710000.0,-80.17341
101720000.0,-80.249756
101730000.0,-80.3856
101740000.0,-80.52163
101750000.0,-80.55568
101760000.0,-80.6226
101770000.0,-80.66368
101780000.0,-80.68558
101790000.0,-80.641754
101800000.0,-80.62748
101810000.0,-80.66254
101820000.0,-80.66095
101830000.0,-80.64259
101840000.0,-80.655685
101850000.0,-80.66753
101860000.0,-80.64336
101870000.0,-80.59821
101880000.0,-80.64322
101890000.0,-80.67552
101900000.0,-80.61154
101910000.0,-80.59216
101920000.0,-80.617455
101930000.0,-80.593704
101940000.0,-80.685005
101950000.0,-80.66942
101960000.0,-80.60971
101970000.0,-80.60747
101980000.0,-80.67354
101990000.0,-80.64676
102000000.0,-80.597626
102010000.0,-80.64312
102020000.0,-80.68286
102030000.0,-80.618454
102040000.0,-80.62482
102050000.0,-80.64194
102060000.0,-80.628876
102070000.0,-80.61531
102080000.0,-80.68664
102090000.0,-80.65891
102100000.0,-80.61141
102110000.0,-80.59457
102120000.0,-80.61623
102130000.0,-80.62616
102140000.0,-80.69215
102150000.0,-80.686035
102160000.0,-80.675064
102170000.0,-80.6611
102180000.0,-80.62882
102190000.0,-80.621445
102200000.0,-80.63144
102210000.0,-80.54909
102220000.0,-80.49882
102230000.0,-80.38148
102240000.0,-80.36556
102250000.0,-80.345825
102260000.0,-80.34195
102270000.0,-80.3149
102280000.0,-80.29886
102290000.0,-80.20645
102300000.0,-80.17806
102310000.0,-80.15708
102320000.0,-80.13388
102330000.0,-80.21922
102340000.0,-80.224915
102350000.0,-80.24601
102360000.0,-80.37532
102370000.0,-80.426605
102380000.0,-80.49462
102390000.0,-80.5505
102400000.0,-80.64334
102410000.0,-80.67002
102420000.0,-80.641235
102430000.0,-80.659096
102440000.0,-80.68902
102450000.0,-80.66947
102460000.0,-80.66006
102470000.0,-80.65986
102480000.0,-80.62801
102490000.0,-80.58114
102500000.0,-80.56655
102510000.0,-80.623314
102520000.0,-80.59227
102530000.0,-80.62413
102540000.0,-80.63289
102550000.0,-80.57285
102560000.0,-80.5807
102570000.0,-80.620514
102580000.0,-80.55744
102590000.0,-80.583984
102600000.0,-80.659805
102610000.0,-80.5947
102620000.0,-80.566246
102630000.0,-80.50872
102640000.0,-80.530334
102650000.0,-80.55147
102660000.0,-80.57889
102670000.0,-80.59804
102680000.0,-80.58905
102690000.0,-80.54283
102700000.0,-80.56729
102710000.0,-80.609665
102720000.0,-80.634834
102730000.0,-80.61947
102740000.0,-80.549576
102750000.0,-80.52517
102760000.0,-80.59239
102770000.0,-80.56529
102780000.0,-80.5264
102790000.0,-80.518326
102800000.0,-80.56285
102810000.0,-80.55052
102820000.0,-80.496796
102830000.0,-80.52048
102840000.0,-80.488815
102850000.0,-80.48026
102860000.0,-80.45596
102870000.0,-80.44412
102880000.0,-80.40813
102890000.0,-80.398224
102900000.0,-80.38204
102910000.0,-80.344475
102920000.0,-80.34224
102930000.0,-80.33581
102940000.0,-80.258705
102950000.0,-80.12776
102960000.0,-79.96314
102970000.0,-79.70264
102980000.0,-79.272095
102990000.0,-79.40987
103000000.0,-83.49114
103010000.0,-79.404816
103020000.0,-79.29532
103030000.0,-79.73486
103040000.0,-79.9966
103050000.0,-80.09361
103060000.0,-80.21297
103070000.0,-80.296875
103080000.0,-80.33194
103090000.0,-80.30905
103100000.0,-80.35713
103110000.0,-80.39798
103120000.0,-80.40966
103130000.0,-80.47187
103140000.0,-80.49776
103150000.0,-80.49568
103160000.0,-80.468475
103170000.0,-80.505356
103180000.0,-80.5225
103190000.0,-80.541855
103200000.0,-80.526276
103210000.0,-80.58094
103220000.0,-80.54107
103230000.0,-80.54699
103240000.0,-80.55322
103250000.0,-80.530304
103260000.0,-80.5276
103270000.0,-80.5265
103280000.0,-80.526436
103290000.0,-80.577484
103300000.0,-80.64277
103310000.0,-80.59862
103320000.0,-80.588264
103330000.0,-80.624245
103340000.0,-80.57666
103350000.0,-80.57624
103360000.0,-80.54881
103370000.0,-80.52357
103380000.0,-80.55561
103390000.0,-80.58224
103400000.0,-80.63416
103410000.0,-80.611465
103420000.0,-80.582825
103430000.0,-80.64239
103440000.0,-80.64747
103450000.0,-80.64429
103460000.0,-80.63496
103470000.0,-80.58425
103480000.0,-80.60584
103490000.0,-80.64055
103500000.0,-80.59058
103510000.0,-80.556015
103520000.0,-80.629745
103530000.0,-80.632286
103540000.0,-80.631645
103550000.0,-80.6892
103560000.0,-80.68207
103570000.0,-80.65774
103580000.0,-80.65377
103590000.0,-80.593735
103600000.0,-80.48455
103610000.0,-80.21391
103620000.0,-79.87076
103630000.0,-79.530685
103640000.0,-79.11827
103650000.0,-78.62309
103660000.0,-78.39554
103670000.0,-78.43026
103680000.0,-78.17513
103690000.0,-78.08162
103700000.0,-78.24326
103710000.0,-78.38118
103720000.0,-78.757996
103730000.0,-79.045746
103740000.0,-79.06566
103750000.0,-79.088455
103760000.0,-79.14371
103770000.0,-79.2726
103780000.0,-79.730835
103790000.0,-80.17973
103800000.0,-80.47921
103810000.0,-80.60937
103820000.0,-80.62779
103830000.0,-80.66738
103840000.0,-80.613235
103850000.0,-80.575226
103860000.0,-80.63861
103870000.0,-80.62567
103880000.0,-80.61299
103890000.0,-80.59648
103900000.0,-80.58709
103910000.0,-80.617874
103920000.0,-80.65621
103930000.0,-80.60924
103940000.0,-80.586815
103950000.0,-80.607834
103960000.0,-80.64618
103970000.0,-80.63369
103980000.0,-80.64202
103990000.0,-80.638885
104000000.0,-80.62653
104010000.0,-80.6664
104020000.0,-80.64922
104030000.0,-80.58139
104040000.0,-80.64179
104050000.0,-80.67758
104060000.0,-80.702705
104070000.0,-80.65063
104080000.0,-80.63599
104090000.0,-80.63763
104100000.0,-80.61914
104110000.0,-80.63861
104120000.0,-80.69169
104130000.0,-80.640945
104140000.0,-80.64818
104150000.0,-80.64407
104160000.0,-80.61314
104170000.0,-80.65133
104180000.0,-80.69075
104190000.0,-80.68431
104200000.0,-80.62641
104210000.0,-80.621185
104220000.0,-80.67763
104230000.0,-80.650185
104240000.0,-80.67201
104250000.0,-80.662384
104260000.0,-80.678665
104270000.0,-80.64307
104280000.0,-80.60123
104290000.0,-80.5994
104300000.0,-80.61206
104310000.0,-80.57362
104320000.0,-80.56492
104330000.0,-80.62499
104340000.0,-80.60907
104350000.0,-80.62373
104360000.0,-80.61515
104370000.0,-80.69382
104380000.0,-80.652855
104390000.0,-80.63015
104400000.0,-80.66867
104410000.0,-80.622665
104420000.0,-80.61609
104430000.0,-80.672806
104440000.0,-80.647385
104450000.0,-80.58156
104460000.0,-80.68652
104470000.0,-80.708885
104480000.0,-80.72328
104490000.0,-80.664856
104500000.0,-80.67252
104510000.0,-80.6828
104520000.0,-80.647095
104530000.0,-80.63293
104540000.0,-80.65344
104550000.0,-80.60516
104560000.0,-80.60993
104570000.0,-80.6503
104580000.0,-80.65688
104590000.0,-80.680984
104600000.0,-80.67325
104610000.0,-80.70095
104620000.0,-80.6824
104630000.0,-80.67341
104640000.0,-80.67224
104650000.0,-80.67833
104660000.0,-80.672005
104670000.0,-80.697556
104680000.0,-80.66864
104690000.0,-80.62578
104700000.0,-80.65082
104710000.0,-80.64643
104720000.0,-80.693855
104730000.0,-80.69472
104740000.0,-80.702835
104750000.0,-80.682434
104760000.0,-80.58708
104770000.0,-80.60417
104780000.0,-80.643814
104790000.0,-80.62053
104800000.0,-80.57198
104810000.0,-80.62283
104820000.0,-80.64467
104830000.0,-80.69911
104840000.0,-80.7055
104850000.0,-80.73343
104860000.0,-80.70855
104870000.0,-80.63209
104880000.0,-80.63043
104890000.0,-80.65884
104900000.0,-80.63153
104910000.0,-80.66799
104920000.0,-80.67705
104930000.0,-80.65666
104940000.0,-80.69473
104950000.0,-80.67833
104960000.0,-80.67586
104970000.0,-80.660645
104980000.0,-80.68012
104990000.0,-80.667175
105000000.0,-80.56667
105010000.0,-80.6134
105020000.0,-80.64392
105030000.0,-80.64574
105040000.0,-80.6523
105050000.0,-80.64346
105060000.0,-80.62349
105070000.0,-80.67384
105080000.0,-80.63298
105090000.0,-80.62442
105100000.0,-80.65282
105110000.0,-80.64877
105120000.0,-80.63193
105130000.0,-80.67862
105140000.0,-80.646484
105150000.0,-80.687546
105160000.0,-80.71568
105170000.0,-80.69581
105180000.0,-80.67077
105190000.0,-80.638435
105200000.0,-80.61673
105210000.0,-80.58907
105220000.0,-80.6203
105230000.0,-80.65589
105240000.0,-80.68399
105250000.0,-80.63686
105260000.0,-80.65433
105270000.0,-80.67464
105280000.0,-80.62189
105290000.0,-80.569595
105300000.0,-80.599815
105310000.0,-80.6404
105320000.0,-80.63139
105330000.0,-80.62555
105340000.0,-80.66586
105350000.0,-80.651596
105360000.0,-80.64414
105370000.0,-80.64554
105380000.0,-80.63902
105390000.0,-80.6501
105400000.0,-80.63676
105410000.0,-80.66289
105420000.0,-80.72043
105430000.0,-80.65236
105440000.0,-80.67279
105450000.0,-80.68104
105460000.0,-80.642845
105470000.0,-80.655525
105480000.0,-80.64147
105490000.0,-80.63653
105500000.0,-80.67234
105510000.0,-80.69876
105520000.0,-80.67145
105530000.0,-80.64083
105540000.0,-80.60956
105550000.0,-80.65375
105560000.0,-80.67731
105570000.0,-80.66092
105580000.0,-80.67563
105590000.0,-80.653885
105600000.0,-80.641014
105610000.0,-80.63013
105620000.0,-80.52655
105630000.0,-80.45959
105640000.0,-80.32521
105650000.0,-80.01436
105660000.0,-79.56512
105670000.0,-78.77041
105680000.0,-77.80873
105690000.0,-77.10995
105700000.0,-76.76704
105710000.0,-77.1718
105720000.0,-77.9241
105730000.0,-78.25725
105740000.0,-78.71532
105750000.0,-79.34628
105760000.0,-79.87836
105770000.0,-80.26679
105780000.0,-80.47878
105790000.0,-80.59585
105800000.0,-80.67733
105810000.0,-80.64576
105820000.0,-80.690216
105830000.0,-80.65726
105840000.0,-80.63551
105850000.0,-80.65942
105860000.0,-80.66408
105870000.0,-80.64847
105880000.0,-80.65421
105890000.0,-80.66794
105900000.0,-80.64945
105910000.0,-80.63821
105920000.0,-80.6971
105930000.0,-80.65102
105940000.0,-80.65689
105950000.0,-80.6913
105960000.0,-80.62033
105970000.0,-80.62056
105980000.0,-80.66237
105990000.0,-80.205414
106000000.0,-79.24266
106010000.0,-80.32418
106020000.0,-80.70172
106030000.0,-80.63801
106040000.0,-80.60284
106050000.0,-80.63692
106060000.0,-80.64984
106070000.0,-80.651535
106080000.0,-80.6812
106090000.0,-80.62446
106100000.0,-80.61459
106110000.0,-80.65523
106120000.0,-80.65712
106130000.0,-80.641266
106140000.0,-80.63197
106150000.0,-80.671265
106160000.0,-80.64278
106170000.0,-80.631134
106180000.0,-80.61803
106190000.0,-80.6277
106200000.0,-80.61905
106210000.0,-80.6145
106220000.0,-80.6421
106230000.0,-80.61385
106240000.0,-80.56033
106250000.0,-80.57858
106260000.0,-80.512375
106270000.0,-80.48565
106280000.0,-80.51872
106290000.0,-80.557205
106300000.0,-80.59365
106310000.0,-80.569954
106320000.0,-80.60014
106330000.0,-80.60471
106340000.0,-80.623856
106350000.0,-80.68939
106360000.0,-80.59755
106370000.0,-80.551575
106380000.0,-80.5638
106390000.0,-80.59429
106400000.0,-80.60325
106410000.0,-80.57457
106420000.0,-80.56918
106430000.0,-80.56881
106440000.0,-80.58919
106450000.0,-80.60322
106460000.0,-80.60927
106470000.0,-80.62065
106480000.0,-80.64193
106490000.0,-80.58057
106500000.0,-80.06397
106510000.0,-80.40646
106520000.0,-80.642975
106530000.0,-80.65708
106540000.0,-80.66222
106550000.0,-80.662575
106560000.0,-80.67798
106570000.0,-80.64345
106580000.0,-80.5782
106590000.0,-80.63075
106600000.0,-80.62272
106610000.0,-80.603
106620000.0,-80.661865
106630000.0,-80.65174
106640000.0,-80.63768
106650000.0,-80.66555
106660000.0,-80.63548
106670000.0,-80.56645
106680000.0,-80.600746
106690000.0,-80.62387
106700000.0,-80.635185
106710000.0,-80.60581
106720000.0,-80.597725
106730000.0,-80.62354
106740000.0,-80.569725
106750000.0,-80.60431
106760000.0,-80.63282
106770000.0,-80.63508
106780000.0,-80.5935
106790000.0,-80.58444
106800000.0,-80.573814
106810000.0,-80.58566
106820000.0,-80.615204
106830000.0,-80.62301
106840000.0,-80.57438
106850000.0,-80.60668
106860000.0,-80.64667
106870000.0,-80.61125
106880000.0,-80.607925
106890000.0,-80.55401
106900000.0,-80.57148
106910000.0,-80.639496
106920000.0,-80.64957
106930000.0,-80.58273
106940000.0,-80.57864
106950000.0,-80.60011
106960000.0,-80.588234
106970000.0,-80.6197
106980000.0,-80.66939
106990000.0,-80.55272
107000000.0,-80.35846
107010000.0,-80.53734
107020000.0,-80.57501
107030000.0,-80.56732
107040000.0,-80.594604
107050000.0,-80.56404
107060000.0,-80.6184
107070000.0,-80.6578
107080000.0,-80.608795
107090000.0,-80.61904
107100000.0,-80.60982
107110000.0,-80.6096
107120000.0,-80.66863
107130000.0,-80.63309
107140000.0,-80.62906
107150000.0,-80.68488
107160000.0,-80.645004
107170000.0,-80.64873
107180000.0,-80.61481
107190000.0,-80.61597
107200000.0,-80.5873
107210000.0,-80.57034
107220000.0,-80.55496
107230000.0,-80.58594
107240000.0,-80.61581
107250000.0,-80.61691
107260000.0,-80.63365
107270000.0,-80.669525
107280000.0,-80.60367
107290000.0,-80.56273
107300000.0,-80.5463
107310000.0,-80.576744
107320000.0,-80.57491
107330000.0,-80.63042
107340000.0,-80.60437
107350000.0,-80.5504
107360000.0,-80.55296
107370000.0,-80.5861
107380000.0,-80.618675
107390000.0,-80.62992
107400000.0,-80.61535
107410000.0,-80.650475
107420000.0,-80.6033
107430000.0,-80.6044
107440000.0,-80.668015
107450000.0,-80.736855
107460000.0,-80.69168
107470000.0,-80.57732
107480000.0,-80.556305
107490000.0,-80.57801
107500000.0,-80.60971
107510000.0,-80.633606
107520000.0,-80.574234
107530000.0,-80.59328
107540000.0,-80.60216
107550000.0,-80.59009
107560000.0,-80.632484
107570000.0,-80.609665
107580000.0,-80.60448
107590000.0,-80.617516
107600000.0,-80.56555
107610000.0,-80.56408
107620000.0,-80.61853
107630000.0,-80.60892
107640000.0,-80.58292
107650000.0,-80.61787
107660000.0,-80.58234
107670000.0,-80.538795
107680000.0,-80.59251
107690000.0,-80.598175
107700000.0,-80.57453
107710000.0,-80.54381
107720000.0,-80.549255
107730000.0,-80.59688
107740000.0,-80.567276
107750000.0,-80.57907
107760000.0,-80.58376
107770000.0,-80.6038
107780000.0,-80.57008
107790000.0,-80.595215
107800000.0,-80.645294
107810000.0,-80.58238
107820000.0,-80.55447
107830000.0,-80.51355
107840000.0,-80.540855
107850000.0,-80.55833
107860000.0,-80.57914
107870000.0,-80.5863
107880000.0,-80.56584
107890000.0,-80.53565
107900000.0,-80.55673
107910000.0,-80.638596
107920000.0,-80.669106
107930000.0,-80.611336
107940000.0,-80.6037
107950000.0,-80.58334
107960000.0,-80.56932
107970000.0,-80.55467
107980000.0,-80.54698
107990000.0,-80.55724
108000000.0,-80.47232
108010000.0,-80.49057
108020000.0,-80.52601
108030000.0,-80.58834
108040000.0,-80.60812
108050000.0,-80.63501
108060000.0,-80.62852
108070000.0,-80.63962
108080000.0,-80.57756
108090000.0,-80.5651
108100000.0,-80.55729
108110000.0,-80.57786
108120000.0,-80.625565
108130000.0,-80.5996
108140000.0,-80.599
108150000.0,-80.575714
108160000.0,-80.553314
108170000.0,-80.56494
108180000.0,-80.55476
108190000.0,-80.528824
108200000.0,-80.55711
108210000.0,-80.533905
108220000.0,-80.50686
108230000.0,-80.569
108240000.0,-80.62254
108250000.0,-80.55492
108260000.0,-80.54158
108270000.0,-80.62202
108280000.0,-80.59075
108290000.0,-80.56568
108300000.0,-80.56711
108310000.0,-80.57174
108320000.0,-80.562706
108330000.0,-80.55282
108340000.0,-80.506516
108350000.0,-80.537704
108360000.0,-80.60204
108370000.0,-80.5746
108380000.0,-80.54401
108390000.0,-80.57117
108400000.0,-80.52451
108410000.0,-80.50249
108420000.0,-80.56285
108430000.0,-80.547775
108440000.0,-80.53836
108450000.0,-80.56482
108460000.0,-80.617096
108470000.0,-80.614235
108480000.0,-80.61743
108490000.0,-80.638824
108500000.0,-80.600266
108510000.0,-80.573105
108520000.0,-80.57677
108530000.0,-80.57229
108540000.0,-80.5694
108550000.0,-80.56756
108560000.0,-80.606926
108570000.0,-80.59617
108580000.0,-80.57815
108590000.0,-80.55161
108600000.0,-80.58277
108610000.0,-80.61488
108620000.0,-80.57141
108630000.0,-80.50528
108640000.0,-80.54787
108650000.0,-80.56215
108660000.0,-80.54645
108670000.0,-80.54984
108680000.0,-80.55763
108690000.0,-80.581436
108700000.0,-80.57807
108710000.0,-80.547295
108720000.0,-80.593956
108730000.0,-80.60333
108740000.0,-80.55963
108750000.0,-80.56718
108760000.0,-80.55332
108770000.0,-80.55037
108780000.0,-80.534515
108790000.0,-80.468735
108800000.0,-80.46452
108810000.0,-80.555984
108820000.0,-80.590935
108830000.0,-80.60863
108840000.0,-80.53026
108850000.0,-80.48906
108860000.0,-80.62048
108870000.0,-80.59319
108880000.0,-80.48614
108890000.0,-80.54119
108900000.0,-80.59234
108910000.0,-80.541916
108920000.0,-80.53435
108930000.0,-80.59936
108940000.0,-80.603325
108950000.0,-80.56004
108960000.0,-80.54228
108970000.0,-80.53281
108980000.0,-80.50895
108990000.0,-80.41591
109000000.0,-80.199265
109010000.0,-80.46589
109020000.0,-80.547935
109030000.0,-80.54107
109040000.0,-80.5254
109050000.0,-80.544525
109060000.0,-80.534744
109070000.0,-80.50518
109080000.0,-80.49958
109090000.0,-80.51631
109100000.0,-80.52855
109110000.0,-80.55115
109120000.0,-80.54673
109130000.0,-80.548965
109140000.0,-80.54266
109150000.0,-80.54024
109160000.0,-80.55508
109170000.0,-80.563705
109180000.0,-80.583374
109190000.0,-80.5347
109200000.0,-80.52348
109210000.0,-80.52255
109220000.0,-80.539825
109230000.0,-80.54272
109240000.0,-80.54744
109250000.0,-80.54384
109260000.0,-80.55873
109270000.0,-80.553665
109280000.0,-80.588196
109290000.0,-80.58313
109300000.0,-80.54129
109310000.0,-80.47687
109320000.0,-80.50261
109330000.0,-80.50622
109340000.0,-80.54497
109350000.0,-80.55426
109360000.0,-80.55505
109370000.0,-80.512726
109380000.0,-80.53513
109390000.0,-80.558716
109400000.0,-80.5182
109410000.0,-80.544426
109420000.0,-80.514
109430000.0,-80.533554
109440000.0,-80.547035
109450000.0,-80.52723
109460000.0,-80.543175
109470000.0,-80.59198
109480000.0,-80.5719
109490000.0,-80.52008
109500000.0,-80.4608
109510000.0,-80.469604
109520000.0,-80.528305
109530000.0,-80.59393
109540000.0,-80.56754
109550000.0,-80.504745
109560000.0,-80.517845
109570000.0,-80.57799
109580000.0,-80.56839
109590000.0,-80.5523
109600000.0,-80.53527
109610000.0,-80.48721
109620000.0,-80.52429
109630000.0,-80.51823
109640000.0,-80.50202
109650000.0,-80.51132
109660000.0,-80.54593
109670000.0,-80.53404
109680000.0,-80.540955
109690000.0,-80.553116
109700000.0,-80.56116
109710000.0,-80.5121
109720000.0,-80.49015
109730000.0,-80.52506
109740000.0,-80.53386
109750000.0,-80.519775
109760000.0,-80.563126
109770000.0,-80.55386
109780000.0,-80.51503
109790000.0,-80.51976
109800000.0,-80.51639
109810000.0,-80.51681
109820000.0,-80.518105
109830000.0,-80.512344
109840000.0,-80.50259
109850000.0,-80.51068
109860000.0,-80.55998
109870000.0,-80.55472
109880000.0,-80.53813
109890000.0,-80.55302
109900000.0,-80.52659
109910000.0,-80.569244
109920000.0,-80.5609
109930000.0,-80.54527
109940000.0,-80.55035
109950000.0,-80.52579
109960000.0,-80.53101
109970000.0,-80.53175
109980000.0,-80.52681
109990000.0,-80.556366
110000000.0,-80.548645
110010000.0,-80.51617
110020000.0,-80.532715
110030000.0,-80.54555
110040000.0,-80.48898
110050000.0,-80.520004
110060000.0,-80.541725
110070000.0,-80.58784
110080000.0,-80.53588
110090000.0,-80.461845
110100000.0,-80.50167
110110000.0,-80.51925
110120000.0,-80.498825
110130000.0,-80.49242
110140000.0,-80.52493
110150000.0,-80.580154
110160000.0,-80.5801
110170000.0,-80.51819
110180000.0,-80.52063
110190000.0,-80.5254
110200000.0,-80.4957
110210000.0,-80.46669
110220000.0,-80.50008
110230000.0,-80.47867
110240000.0,-80.52895
110250000.0,-80.5367
110260000.0,-80.49359
110270000.0,-80.501495
110280000.0,-80.49353
110290000.0,-80.39902
110300000.0,-80.31686
110310000.0,-80.352165
110320000.0,-80.40941
110330000.0,-80.44724
110340000.0,-80.45028
110350000.0,-80.44469
110360000.0,-80.41411
110370000.0,-80.4383
110380000.0,-80.47242
110390000.0,-80.49559
110400000.0,-80.544624
110410000.0,-80.56924
110420000.0,-80.50147
110430000.0,-80.496635
110440000.0,-80.55571
110450000.0,-80.52005
110460000.0,-80.5612
110470000.0,-80.54991
110480000.0,-80.5037
110490000.0,-80.516426
110500000.0,-80.54164
110510000.0,-80.536125
110520000.0,-80.52308
110530000.0,-80.54144
110540000.0,-80.52063
110550000.0,-80.50256
110560000.0,-80.50214
110570000.0,-80.48979
110580000.0,-80.52903
110590000.0,-80.44364
110600000.0,-80.4546
110610000.0,-80.53578
110620000.0,-80.52034
110630000.0,-80.523674
110640000.0,-80.58359
110650000.0,-80.53092
110660000.0,-80.48839
110670000.0,-80.496254
110680000.0,-80.50979
110690000.0,-80.50918
110700000.0,-80.50666
110710000.0,-80.51156
110720000.0,-80.481476
110730000.0,-80.491196
110740000.0,-80.502174
110750000.0,-80.47885
110760000.0,-80.50706
110770000.0,-80.49503
110780000.0,-80.55515
110790000.0,-80.52975
110800000.0,-80.501465
110810000.0,-80.50201
110820000.0,-80.47459
110830000.0,-80.52433
110840000.0,-80.54097
110850000.0,-80.4982
110860000.0,-80.48962
110870000.0,-80.52506
110880000.0,-80.54946
110890000.0,-80.52917
110900000.0,-80.52248
110910000.0,-80.52333
110920000.0,-80.511734
110930000.0,-80.52505
110940000.0,-80.51072
110950000.0,-80.55269
110960000.0,-80.54094
110970000.0,-80.55623
110980000.0,-80.53245
110990000.0,-80.492325
111000000.0,-80.48893
111010000.0,-80.5243
111020000.0,-80.55309
111030000.0,-80.5316
111040000.0,-80.554855
111050000.0,-80.45662
111060000.0,-80.46358
111070000.0,-80.51398
111080000.0,-80.465965
111090000.0,-80.331955
111100000.0,-80.30746
111110000.0,-80.37899
111120000.0,-80.48313
111130000.0,-80.55165
111140000.0,-80.56526
111150000.0,-80.57739
111160000.0,-80.54657
111170000.0,-80.51406
111180000.0,-80.52421
111190000.0,-80.560684
111200000.0,-80.55075
111210000.0,-80.51597
111220000.0,-80.51583
111230000.0,-80.54091
111240000.0,-80.503624
111250000.0,-80.41809
111260000.0,-80.43852
111270000.0,-80.49901
111280000.0,-80.53923
111290000.0,-80.55525
111300000.0,-80.51834
111310000.0,-80.45826
111320000.0,-80.47774
111330000.0,-80.51277
111340000.0,-80.47006
111350000.0,-80.44968
111360000.0,-80.510315
111370000.0,-80.53589
111380000.0,-80.436264
111390000.0,-80.46563
111400000.0,-80.49155
111410000.0,-80.45569
111420000.0,-80.44682
111430000.0,-80.45319
111440000.0,-80.49301
111450000.0,-80.52532
111460000.0,-80.54772
111470000.0,-80.53624
111480000.0,-80.5246
111490000.0,-80.501396
111500000.0,-80.513245
111510000.0,-80.50206
111520000.0,-80.49904
111530000.0,-80.53891
111540000.0,-80.54144
111550000.0,-80.511635
111560000.0,-80.50163
111570000.0,-80.44711
111580000.0,-80.486916
111590000.0,-80.48468
111600000.0,-80.49806
111610000.0,-80.4801
111620000.0,-80.45243
111630000.0,-80.50142
111640000.0,-80.472496
111650000.0,-80.50529
111660000.0,-80.52589
111670000.0,-80.46764
111680000.0,-80.49704
111690000.0,-80.50811
111700000.0,-80.47458
111710000.0,-80.47165
111720000.0,-80.51269
111730000.0,-80.50895
111740000.0,-80.4727
111750000.0,-80.46266
111760000.0,-80.46711
111770000.0,-80.488365
111780000.0,-80.47113
111790000.0,-80.46436
111800000.0,-80.50043
111810000.0,-80.49259
111820000.0,-80.494995
111830000.0,-80.567154
111840000.0,-80.53834
111850000.0,-80.50787
111860000.0,-80.50971
111870000.0,-80.513985
111880000.0,-80.46385
111890000.0,-80.45163
111900000.0,-80.44711
111910000.0,-80.50374
111920000.0,-80.553116
111930000.0,-80.51994
111940000.0,-80.50179
111950000.0,-80.53727
111960000.0,-80.477585
111970000.0,-80.455666
111980000.0,-80.49397
111990000.0,-80.50706
112000000.0,-80.46925
112010000.0,-80.48276
112020000.0,-80.50723
112030000.0,-80.49594
112040000.0,-80.497055
112050000.0,-80.55197
112060000.0,-80.49936
112070000.0,-80.463165
112080000.0,-80.48619
112090000.0,-80.49778
112100000.0,-80.40841
112110000.0,-80.452835
112120000.0,-80.477745
112130000.0,-80.52855
112140000.0,-80.51984
112150000.0,-80.535194
112160000.0,-80.562706
112170000.0,-80.558174
112180000.0,-80.547714
112190000.0,-80.49623
112200000.0,-80.45086
112210000.0,-80.46074
112220000.0,-80.50742
112230000.0,-80.50602
112240000.0,-80.47479
112250000.0,-80.44808
112260000.0,-80.51212
112270000.0,-80.49266
112280000.0,-80.494965
112290000.0,-80.50884
112300000.0,-80.56052
112310000.0,-80.503456
112320000.0,-80.4948
112330000.0,-80.54317
112340000.0,-80.597
112350000.0,-80.588
112360000.0,-80.5275
112370000.0,-80.494225
112380000.0,-80.497444
112390000.0,-80.47836
112400000.0,-80.47238
112410000.0,-80.46311
112420000.0,-80.52672
112430000.0,-80.51239
112440000.0,-80.5287
112450000.0,-80.56098
112460000.0,-80.53025
112470000.0,-80.47108
112480000.0,-80.4831
112490000.0,-80.50393
112500000.0,-80.52417
112510000.0,-80.50953
112520000.0,-80.52209
112530000.0,-80.59482
112540000.0,-80.60462
112550000.0,-80.52855
112560000.0,-80.48515
112570000.0,-80.499275
112580000.0,-80.530075
112590000.0,-80.51503
112600000.0,-80.49839
112610000.0,-80.55686
112620000.0,-80.52185
112630000.0,-80.48674
112640000.0,-80.49028
112650000.0,-80.48183
112660000.0,-80.50366
112670000.0,-80.50132
112680000.0,-80.53651
112690000.0,-80.55187
112700000.0,-80.53452
112710000.0,-80.499
112720000.0,-80.48251
112730000.0,-80.51657
112740000.0,-80.557465
112750000.0,-80.53249
112760000.0,-80.45456
112770000.0,-80.48637
112780000.0,-80.51731
112790000.0,-80.53398
112800000.0,-80.57252
112810000.0,-80.54549
112820000.0,-80.444565
112830000.0,-80.5
112840000.0,-80.48932
112850000.0,-80.54631
112860000.0,-80.51465
112870000.0,-80.53737
112880000.0,-80.55942
112890000.0,-80.52529
112900000.0,-80.51861
112910000.0,-80.50874
112920000.0,-80.507034
112930000.0,-80.5239
112940000.0,-80.56749
112950000.0,-80.535095
112960000.0,-80.461464
112970000.0,-80.522095
112980000.0,-80.528984
112990000.0,-80.46104
