Frequency (Hz),PSD (dBfs)
78000000.0,-80.78177
78009765.625,-81.04295
78019531.25,-81.10897
78029296.875,-81.33731
78039062.5,-81.27443
78048828.125,-81.150406
78058593.75,-81.14052
78068359.375,-81.14729
78078125.0,-81.19224
78087890.625,-81.03989
78097656.25,-81.05545
78107421.875,-81.09447
78117187.5,-81.26705
78126953.125,-81.2624
78136718.75,-81.22908
78146484.375,-81.10838
78156250.0,-81.06865
78166015.625,-81.30252
78175781.25,-81.377655
78185546.875,-81.29723
78195312.5,-81.126434
78205078.125,-81.15882
78214843.75,-81.02719
78224609.375,-81.11268
78234375.0,-81.24843
78244140.625,-81.350945
78253906.25,-81.20476
78263671.875,-81.19903
78273437.5,-81.05663
78283203.125,-80.997734
78292968.75,-81.050964
78302734.375,-81.16185
78312500.0,-81.16863
78322265.625,-81.11736
78332031.25,-81.082115
78341796.875,-81.147415
78351562.5,-81.034225
78361328.125,-81.14189
78371093.75,-81.02501
78380859.375,-81.180275
78390625.0,-81.28137
78400390.625,-81.24373
78410156.25,-81.071
78419921.875,-81.22179
78429687.5,-81.20398
78439453.125,-81.30345
78449218.75,-81.279465
78458984.375,-81.28455
78468750.0,-81.22979
78478515.625,-80.996666
78488281.25,-81.018234
78498046.875,-80.99237
78507812.5,-80.93861
78517578.125,-81.14211
78527343.75,-81.047554
78537109.375,-80.989334
78546875.0,-81.043
78556640.625,-81.1304
78566406.25,-81.1926
78576171.875,-81.1734
78585937.5,-81.35864
78595703.125,-81.35804
78605468.75,-81.346085
78615234.375,-81.073944
78625000.0,-81.18394
78634765.625,-81.141556
78644531.25,-81.15489
78654296.875,-81.13038
78664062.5,-81.17268
78673828.125,-81.36993
78683593.75,-81.33125
78693359.375,-81.236305
78703125.0,-81.11217
78712890.625,-81.11579
78722656.25,-81.25885
78732421.875,-81.186005
78742187.5,-81.018326
78751953.125,-81.03549
78761718.75,-81.16123
78771484.375,-81.10602
78781250.0,-80.96854
78791015.625,-81.041115
78800781.25,-81.123
78810546.875,-80.98488
78820312.5,-81.01521
78830078.125,-81.24859
78839843.75,-81.24801
78849609.375,-81.316444
78859375.0,-81.39054
78869140.625,-81.121056
78878906.25,-81.14505
78888671.875,-81.25075
78898437.5,-81.13292
78908203.125,-81.14404
78917968.75,-81.168144
78927734.375,-81.27855
78937500.0,-81.17168
78947265.625,-81.21202
78957031.25,-81.30462
78966796.875,-81.09742
78976562.5,-81.06999
78986328.125,-81.31454
78996093.75,-81.222466
79005859.375,-81.10203
79015625.0,-81.0159
79025390.625,-81.14952
79035156.25,-81.28136
79044921.875,-81.161385
79054687.5,-81.295654
79064453.125,-81.46315
79074218.75,-81.26582
79083984.375,-80.971985
79093750.0,-81.13618
79103515.625,-81.25648
79113281.25,-81.1734
79123046.875,-81.16553
79132812.5,-81.1037
79142578.125,-81.139755
79152343.75,-81.21336
79162109.375,-81.20734
79171875.0,-81.312706
79181640.625,-81.28394
79191406.25,-81.20511
79201171.875,-81.19312
79210937.5,-81.12027
79220703.125,-81.2169
79230468.75,-81.15764
79240234.375,-81.23215
79250000.0,-81.31588
79259765.625,-81.2239
79269531.25,-81.168335
79279296.875,-81.26538
79289062.5,-81.195595
79298828.125,-81.1491
79308593.75,-81.09593
79318359.375,-80.96315
79328125.0,-81.21034
79337890.625,-81.183334
79347656.25,-81.09382
79357421.875,-81.18562
79367187.5,-81.088196
79376953.125,-81.032906
79386718.75,-81.01268
79396484.375,-80.95409
79406250.0,-81.09237
79416015.625,-81.2593
79425781.25,-81.33805
79435546.875,-81.235
79445312.5,-81.07439
79455078.125,-81.19891
79464843.75,-81.08186
79474609.375,-81.19769
79484375.0,-81.236534
79494140.625,-81.43938
79503906.25,-81.40041
79513671.875,-81.20849
79523437.5,-81.077354
79533203.125,-81.1132
79542968.75,-81.21741
79552734.375,-81.267845
79562500.0,-81.08876
79572265.625,-81.14692
79582031.25,-81.23023
79591796.875,-81.14571
79601562.5,-81.25283
79611328.125,-81.33788
79621093.75,-81.22427
79630859.375,-81.29527
79640625.0,-81.12114
79650390.625,-80.97367
79660156.25,-81.09708
79669921.875,-81.03748
79679687.5,-81.05733
79689453.125,-80.60298
79699218.75,-80.131645
79708984.375,-80.60273
79718750.0,-81.04514
79728515.625,-81.24304
79738281.25,-81.28084
79748046.875,-81.1966
79757812.5,-81.23542
79767578.125,-81.15765
79777343.75,-81.24245
79787109.375,-81.275215
79796875.0,-81.25999
79806640.625,-81.109604
79816406.25,-81.16131
79826171.875,-81.300705
79835937.5,-81.14215
79845703.125,-81.21583
79855468.75,-81.33807
79865234.375,-81.23685
79875000.0,-81.17092
79884765.625,-81.16594
79894531.25,-81.16921
79904296.875,-81.05946
79914062.5,-80.948425
79923828.125,-81.13915
79933593.75,-81.46241
79943359.375,-81.196045
79953125.0,-81.10482
79962890.625,-81.22327
79972656.25,-81.237366
79982421.875,-81.12933
79992187.5,-77.740685
80001953.125,-75.425354
80011718.75,-79.763016
80021484.375,-81.28491
80031250.0,-81.25386
80041015.625,-81.17645
80050781.25,-81.17283
80060546.875,-81.101494
80070312.5,-81.03311
80080078.125,-81.17224
80089843.75,-81.20685
80099609.375,-81.093155
80109375.0,-81.10167
80119140.625,-81.1575
80128906.25,-81.27747
80138671.875,-81.14898
80148437.5,-81.0592
80158203.125,-81.17096
80167968.75,-81.04374
80177734.375,-80.98785
80187500.0,-81.239136
80197265.625,-81.27445
80207031.25,-81.20213
80216796.875,-81.292175
80226562.5,-81.23527
80236328.125,-81.23004
80246093.75,-81.21175
80255859.375,-81.01406
80265625.0,-80.96742
80275390.625,-81.13033
80285156.25,-81.04292
80294921.875,-81.07613
80304687.5,-81.08452
80314453.125,-80.91053
80324218.75,-81.005745
80333984.375,-81.22674
80343750.0,-81.10852
80353515.625,-81.1423
80363281.25,-81.25584
80373046.875,-81.27632
80382812.5,-81.17016
80392578.125,-81.14967
80402343.75,-81.080864
80412109.375,-81.06838
80421875.0,-81.11106
80431640.625,-81.11395
80441406.25,-81.086
80451171.875,-81.18222
80460937.5,-81.11447
80470703.125,-81.04623
80480468.75,-81.05667
80490234.375,-80.99118
80500000.0,-81.10007
80509765.625,-81.179054
80519531.25,-81.14288
80529296.875,-81.35739
80539062.5,-81.22436
80548828.125,-81.20571
80558593.75,-81.112
80568359.375,-81.06369
80578125.0,-81.26686
80587890.625,-81.20614
80597656.25,-81.00617
80607421.875,-81.06633
80617187.5,-81.244064
80626953.125,-81.11449
80636718.75,-81.157715
80646484.375,-81.11261
80656250.0,-81.082306
80666015.625,-81.08399
80675781.25,-81.20826
80685546.875,-81.156425
80695312.5,-80.99438
80705078.125,-81.07169
80714843.75,-81.19499
80724609.375,-81.47713
80734375.0,-81.31575
80744140.625,-81.32781
80753906.25,-81.28563
80763671.875,-81.32687
80773437.5,-81.217606
80783203.125,-81.08333
80792968.75,-81.091576
80802734.375,-81.229515
80812500.0,-81.196655
80822265.625,-81.140045
80832031.25,-81.21237
80841796.875,-81.329735
80851562.5,-81.27244
80861328.125,-81.25006
80871093.75,-81.00572
80880859.375,-80.85888
80890625.0,-80.83847
80900390.625,-80.96752
80910156.25,-81.24869
80919921.875,-81.2263
80929687.5,-81.24643
80939453.125,-81.25371
80949218.75,-81.19093
80958984.375,-81.30912
80968750.0,-81.33584
80978515.625,-81.40538
80988281.25,-81.31199
80998046.875,-81.2621
81007812.5,-81.13929
81017578.125,-81.2292
81027343.75,-81.35431
81037109.375,-81.16398
81046875.0,-81.17621
81056640.625,-81.2379
81066406.25,-81.2361
81076171.875,-81.15961
81085937.5,-81.21936
81095703.125,-81.16975
81105468.75,-81.293175
81115234.375,-81.274605
81125000.0,-81.2092
81134765.625,-81.23379
81144531.25,-81.20204
81154296.875,-81.42304
81164062.5,-81.28589
81173828.125,-81.11177
81183593.75,-81.125404
81193359.375,-81.12885
81203125.0,-81.166115
81212890.625,-81.362976
81222656.25,-81.23042
81232421.875,-81.168205
81242187.5,-81.13022
81251953.125,-81.25195
81261718.75,-81.19887
81271484.375,-81.1889
81281250.0,-81.32808
81291015.625,-81.35925
81300781.25,-81.28799
81310546.875,-81.25426
81320312.5,-81.32926
81330078.125,-81.32564
81339843.75,-81.32217
81349609.375,-81.414185
81359375.0,-81.379814
81369140.625,-81.218254
81378906.25,-81.33725
81388671.875,-81.293945
81398437.5,-81.25968
81408203.125,-81.10492
81417968.75,-81.19444
81427734.375,-81.214325
81437500.0,-81.129135
81447265.625,-81.31362
81457031.25,-81.32172
81466796.875,-81.25493
81476562.5,-81.34431
81486328.125,-81.31474
81496093.75,-81.30241
81505859.375,-81.19999
81515625.0,-81.082855
81525390.625,-81.15662
81535156.25,-81.19035
81544921.875,-81.23033
81554687.5,-81.21105
81564453.125,-81.04896
81574218.75,-81.26838
81583984.375,-81.25046
81593750.0,-81.266815
81603515.625,-81.4093
81613281.25,-81.55921
81623046.875,-81.37435
81632812.5,-81.21215
81642578.125,-81.16387
81652343.75,-81.142914
81662109.375,-81.01062
81671875.0,-81.11517
81681640.625,-81.24446
81691406.25,-81.14871
81701171.875,-80.94472
81710937.5,-80.95994
81720703.125,-81.22062
81730468.75,-81.28076
81740234.375,-81.22054
81750000.0,-81.05888
81759765.625,-81.138596
81769531.25,-81.05441
81779296.875,-81.11793
81789062.5,-81.27124
81798828.125,-81.289986
81808593.75,-81.21743
81818359.375,-81.07716
81828125.0,-81.14058
81837890.625,-81.279236
81847656.25,-81.248405
81857421.875,-81.34495
81867187.5,-81.323746
81876953.125,-81.145515
81886718.75,-81.18745
81896484.375,-81.10386
81906250.0,-81.02194
81916015.625,-81.10968
81925781.25,-81.263954
81935546.875,-81.40558
81945312.5,-81.377335
81955078.125,-81.26298
81964843.75,-81.26886
81974609.375,-81.35509
81984375.0,-81.2683
81994140.625,-81.25786
82003906.25,-81.29866
82013671.875,-81.40401
82023437.5,-81.363205
82033203.125,-81.344154
82042968.75,-81.342964
82052734.375,-81.378105
82062500.0,-81.306465
82072265.625,-81.195206
82082031.25,-81.41036
82091796.875,-81.434235
82101562.5,-81.23984
82111328.125,-81.207344
82121093.75,-81.25047
82130859.375,-81.153824
82140625.0,-81.21314
82150390.625,-81.26854
82160156.25,-81.30982
82169921.875,-81.16817
82179687.5,-81.18778
82189453.125,-81.199844
82199218.75,-81.25409
82208984.375,-81.454124
82218750.0,-81.449936
82228515.625,-81.38051
82238281.25,-81.264565
82248046.875,-81.25998
82257812.5,-81.3313
82267578.125,-81.22265
82277343.75,-81.26146
82287109.375,-81.27091
82296875.0,-81.341545
82306640.625,-81.50755
82316406.25,-81.24028
82326171.875,-81.20065
82335937.5,-81.260345
82345703.125,-81.130745
82355468.75,-81.194756
82365234.375,-81.27716
82375000.0,-81.48193
82384765.625,-81.39709
82394531.25,-81.30844
82404296.875,-81.25693
82414062.5,-81.26827
82423828.125,-81.29759
82433593.75,-81.45962
82443359.375,-81.24474
82453125.0,-81.071014
82462890.625,-80.99656
82472656.25,-81.12354
82482421.875,-81.16498
82492187.5,-81.20734
82501953.125,-81.26408
82511718.75,-81.209366
82521484.375,-81.38824
82531250.0,-81.38714
82541015.625,-81.25663
82550781.25,-81.441666
82560546.875,-81.27347
82570312.5,-81.21334
82580078.125,-81.21759
82589843.75,-81.204636
82599609.375,-81.29796
82609375.0,-81.4263
82619140.625,-81.39381
82628906.25,-81.30462
82638671.875,-81.24648
82648437.5,-81.10218
82658203.125,-81.16135
82667968.75,-81.34118
82677734.375,-81.33996
82687500.0,-81.25142
82697265.625,-81.29422
82707031.25,-81.24376
82716796.875,-81.179085
82726562.5,-81.24198
82736328.125,-81.33541
82746093.75,-81.37851
82755859.375,-81.40003
82765625.0,-81.31263
82775390.625,-81.19792
82785156.25,-81.269104
82794921.875,-81.25197
82804687.5,-81.24397
82814453.125,-81.04575
82824218.75,-81.0065
82833984.375,-81.23428
82843750.0,-81.155426
82853515.625,-81.16357
82863281.25,-81.18923
82873046.875,-81.29501
82882812.5,-81.1344
82892578.125,-81.13296
82902343.75,-81.17444
82912109.375,-81.25645
82921875.0,-81.43355
82931640.625,-81.43669
82941406.25,-81.23565
82951171.875,-81.30187
82960937.5,-81.28623
82970703.125,-81.26266
82980468.75,-81.22071
82990234.375,-81.18852
83000000.0,-81.27203
83009765.625,-81.309975
83019531.25,-81.306465
83029296.875,-81.27112
83039062.5,-81.1974
83048828.125,-81.14056
83058593.75,-81.33575
83068359.375,-81.41277
83078125.0,-81.19299
83087890.625,-81.11638
83097656.25,-81.34754
83107421.875,-81.38879
83117187.5,-81.42555
83126953.125,-81.54158
83136718.75,-81.483795
83146484.375,-81.26184
83156250.0,-81.22937
83166015.625,-81.33902
83175781.25,-81.25098
83185546.875,-81.297295
83195312.5,-81.34988
83205078.125,-81.27928
83214843.75,-81.19927
83224609.375,-81.23722
83234375.0,-81.21909
83244140.625,-81.292656
83253906.25,-81.18427
83263671.875,-81.115486
83273437.5,-81.16573
83283203.125,-81.21542
83292968.75,-81.28181
83302734.375,-81.40502
83312500.0,-81.35344
83322265.625,-81.25928
83332031.25,-81.33528
83341796.875,-81.23187
83351562.5,-81.194916
83361328.125,-81.162384
83371093.75,-81.14089
83380859.375,-81.10382
83390625.0,-81.24813
83400390.625,-81.29909
83410156.25,-81.180954
83419921.875,-81.45089
83429687.5,-81.347336
83439453.125,-81.29501
83449218.75,-81.33522
83458984.375,-81.173546
83468750.0,-81.17333
83478515.625,-81.237366
83488281.25,-81.290726
83498046.875,-81.36848
83507812.5,-81.21538
83517578.125,-81.23544
83527343.75,-81.36623
83537109.375,-81.27346
83546875.0,-81.278984
83556640.625,-81.30569
83566406.25,-81.32667
83576171.875,-81.28417
83585937.5,-81.26953
83595703.125,-81.41685
83605468.75,-81.12041
83615234.375,-81.321365
83625000.0,-81.30075
83634765.625,-81.335785
83644531.25,-81.45806
83654296.875,-81.46575
83664062.5,-81.24371
83673828.125,-81.11405
83683593.75,-81.12789
83693359.375,-81.097244
83703125.0,-81.104675
83712890.625,-81.19223
83722656.25,-81.26843
83732421.875,-81.334755
83742187.5,-81.36987
83751953.125,-81.22177
83761718.75,-81.02487
83771484.375,-81.19842
83781250.0,-81.16458
83791015.625,-81.23867
83800781.25,-81.22262
83810546.875,-81.29843
83820312.5,-81.38233
83830078.125,-81.275925
83839843.75,-81.38396
83849609.375,-81.24627
83859375.0,-81.41969
83869140.625,-81.499664
83878906.25,-81.40046
83888671.875,-81.31035
83898437.5,-81.517914
83908203.125,-81.36949
83917968.75,-81.252754
83927734.375,-81.14186
83937500.0,-81.213715
83947265.625,-81.30513
83957031.25,-81.45555
83966796.875,-81.41339
83976562.5,-81.40448
83986328.125,-81.3909
83996093.75,-81.15403
84005859.375,-81.1285
84015625.0,-81.27384
84025390.625,-81.32163
84035156.25,-81.23322
84044921.875,-81.15943
84054687.5,-81.118095
84064453.125,-81.2051
84074218.75,-81.26997
84083984.375,-81.24541
84093750.0,-81.122604
84103515.625,-81.05174
84113281.25,-81.21456
84123046.875,-81.34825
84132812.5,-81.14177
84142578.125,-81.24004
84152343.75,-81.436905
84162109.375,-81.44878
84171875.0,-81.27151
84181640.625,-81.28392
84191406.25,-81.21164
84201171.875,-81.34691
84210937.5,-81.30446
84220703.125,-81.20136
84230468.75,-81.30191
84240234.375,-81.376205
84250000.0,-81.28578
84259765.625,-81.17103
84269531.25,-81.10977
84279296.875,-80.80895
84289062.5,-80.96994
84298828.125,-81.241516
84308593.75,-81.2362
84318359.375,-81.25907
84328125.0,-81.28136
84337890.625,-81.378525
84347656.25,-81.382034
84357421.875,-81.317764
84367187.5,-81.35724
84376953.125,-81.37518
84386718.75,-81.3179
84396484.375,-81.234924
84406250.0,-81.22552
84416015.625,-81.29564
84425781.25,-81.35758
84435546.875,-81.28094
84445312.5,-81.389694
84455078.125,-81.16172
84464843.75,-81.15369
84474609.375,-81.198875
84484375.0,-81.4095
84494140.625,-81.468475
84503906.25,-81.26132
84513671.875,-81.33111
84523437.5,-81.42314
84533203.125,-81.32789
84542968.75,-81.33832
84552734.375,-81.2446
84562500.0,-81.315956
84572265.625,-81.26746
84582031.25,-81.329025
84591796.875,-81.27465
84601562.5,-81.31357
84611328.125,-81.40114
84621093.75,-81.286865
84630859.375,-81.31941
84640625.0,-81.218475
84650390.625,-81.44501
84660156.25,-81.421555
84669921.875,-81.35622
84679687.5,-81.39748
84689453.125,-81.34218
84699218.75,-81.13506
84708984.375,-81.23781
84718750.0,-81.35686
84728515.625,-81.23105
84738281.25,-81.37542
84748046.875,-81.275795
84757812.5,-81.22258
84767578.125,-81.199455
84777343.75,-81.30774
84787109.375,-81.318954
84796875.0,-81.19607
84806640.625,-81.247345
84816406.25,-81.104645
84826171.875,-81.3021
84835937.5,-81.191696
84845703.125,-81.17249
84855468.75,-81.34186
84865234.375,-81.52586
84875000.0,-81.34956
84884765.625,-81.22102
84894531.25,-81.16532
84904296.875,-81.0701
84914062.5,-81.10222
84923828.125,-81.176384
84933593.75,-81.201164
84943359.375,-81.30978
84953125.0,-81.324066
84962890.625,-81.352295
84972656.25,-81.34987
84982421.875,-81.23581
84992187.5,-81.24043
85001953.125,-81.14028
85011718.75,-81.1842
85021484.375,-81.24321
85031250.0,-81.26453
85041015.625,-81.08798
85050781.25,-81.02185
85060546.875,-81.275215
85070312.5,-81.43678
85080078.125,-81.378586
85089843.75,-81.325424
85099609.375,-81.070145
85109375.0,-81.1512
85119140.625,-81.37814
85128906.25,-81.3624
85138671.875,-81.38466
85148437.5,-81.57887
85158203.125,-81.39409
85167968.75,-81.25493
85177734.375,-81.29297
85187500.0,-81.27659
85197265.625,-81.33987
85207031.25,-81.29616
85216796.875,-81.293045
85226562.5,-81.25149
85236328.125,-81.185265
85246093.75,-81.11168
85255859.375,-81.24734
85265625.0,-81.42552
85275390.625,-81.385666
85285156.25,-81.37311
85294921.875,-81.28424
85304687.5,-81.17163
85314453.125,-81.30202
85324218.75,-81.28625
85333984.375,-81.350235
85343750.0,-81.19404
85353515.625,-81.507965
85363281.25,-81.62286
85373046.875,-81.36359
85382812.5,-81.20136
85392578.125,-81.23618
85402343.75,-81.395645
85412109.375,-81.44349
85421875.0,-81.389534
85431640.625,-81.334915
85441406.25,-81.24307
85451171.875,-81.27244
85460937.5,-81.268074
85470703.125,-81.27818
85480468.75,-81.255226
85490234.375,-81.21819
85500000.0,-81.24206
85509765.625,-81.235214
85519531.25,-81.18288
85529296.875,-81.31607
85539062.5,-81.41936
85548828.125,-81.407005
85558593.75,-81.37719
85568359.375,-81.282265
85578125.0,-81.23967
85587890.625,-81.23541
85597656.25,-81.17362
85607421.875,-81.11763
85617187.5,-81.24432
85626953.125,-81.201744
85636718.75,-81.19132
85646484.375,-81.26468
85656250.0,-81.22493
85666015.625,-81.386475
85675781.25,-81.455734
85685546.875,-81.21605
85695312.5,-81.17026
85705078.125,-81.34839
85714843.75,-81.49809
85724609.375,-81.45262
85734375.0,-81.40255
85744140.625,-81.21942
85753906.25,-81.17042
85763671.875,-81.235504
85773437.5,-81.28414
85783203.125,-81.40477
85792968.75,-81.45924
85802734.375,-81.45608
85812500.0,-81.33266
85822265.625,-81.19605
85832031.25,-81.1069
85841796.875,-81.33595
85851562.5,-81.5844
85861328.125,-81.46333
85871093.75,-81.05133
85880859.375,-81.34921
85890625.0,-81.39963
85900390.625,-81.29182
85910156.25,-81.3463
85919921.875,-81.46944
85929687.5,-81.55968
85939453.125,-81.514114
85949218.75,-81.5061
85958984.375,-81.33116
85968750.0,-81.18979
85978515.625,-81.33066
85988281.25,-81.44028
85998046.875,-81.38388
86007812.5,-81.33536
86017578.125,-81.37603
86027343.75,-81.444534
86037109.375,-81.24159
86046875.0,-81.275925
86056640.625,-81.3227
86066406.25,-81.195465
86076171.875,-81.24058
86085937.5,-81.36715
86095703.125,-81.29848
86105468.75,-81.502396
86115234.375,-81.33892
86125000.0,-81.17926
86134765.625,-81.35459
86144531.25,-81.35017
86154296.875,-81.155205
86164062.5,-81.315674
86173828.125,-81.239555
86183593.75,-81.21609
86193359.375,-81.40199
86203125.0,-81.365845
86212890.625,-81.39781
86222656.25,-81.46779
86232421.875,-81.34445
86242187.5,-81.234116
86251953.125,-81.21982
86261718.75,-81.27515
86271484.375,-81.290215
86281250.0,-81.36937
86291015.625,-81.23478
86300781.25,-81.30576
86310546.875,-81.30568
86320312.5,-81.36967
86330078.125,-81.41214
86339843.75,-81.26212
86349609.375,-81.42213
86359375.0,-81.32946
86369140.625,-81.20312
86378906.25,-81.21739
86388671.875,-81.271454
86398437.5,-81.293274
86408203.125,-81.41083
86417968.75,-81.22634
86427734.375,-81.273994
86437500.0,-81.31503
86447265.625,-81.42438
86457031.25,-81.605774
86466796.875,-81.333664
86476562.5,-81.29561
86486328.125,-81.28946
86496093.75,-81.38244
86505859.375,-81.270615
86515625.0,-81.07091
86525390.625,-81.214386
86535156.25,-81.46275
86544921.875,-81.31998
86554687.5,-81.3007
86564453.125,-81.298416
86574218.75,-81.22882
86583984.375,-81.22519
86593750.0,-81.37558
86603515.625,-81.37512
86613281.25,-81.20002
86623046.875,-81.246605
86632812.5,-81.207016
86642578.125,-81.09364
86652343.75,-81.261284
86662109.375,-81.342316
86671875.0,-81.32272
86681640.625,-81.384186
86691406.25,-81.379425
86701171.875,-81.31641
86710937.5,-81.3047
86720703.125,-81.43207
86730468.75,-81.281166
86740234.375,-81.32987
86750000.0,-81.39145
86759765.625,-81.19933
86769531.25,-81.3259
86779296.875,-81.51816
86789062.5,-81.36484
86798828.125,-81.296265
86808593.75,-81.26964
86818359.375,-81.32493
86828125.0,-81.25612
86837890.625,-81.1932
86847656.25,-81.29754
86857421.875,-81.342834
86867187.5,-81.31038
86876953.125,-81.41575
86886718.75,-81.471405
86896484.375,-81.37829
86906250.0,-81.260056
86916015.625,-81.24267
86925781.25,-81.37367
86935546.875,-81.31323
86945312.5,-81.2365
86955078.125,-81.32356
86964843.75,-81.252716
86974609.375,-81.232216
86984375.0,-81.23048
86994140.625,-81.38011
87003906.25,-81.25821
87013671.875,-81.3802
87023437.5,-81.50649
87033203.125,-81.37035
87042968.75,-81.25267
87052734.375,-81.26712
87062500.0,-81.45706
87072265.625,-81.44192
87082031.25,-81.423836
87091796.875,-81.46704
87101562.5,-81.21947
87111328.125,-81.22944
87121093.75,-81.270325
87130859.375,-81.45458
87140625.0,-81.50186
87150390.625,-81.23663
87160156.25,-81.377014
87169921.875,-81.70495
87179687.5,-81.442406
87189453.125,-81.3595
87199218.75,-81.33782
87208984.375,-81.37158
87218750.0,-81.381226
87228515.625,-81.295784
87238281.25,-81.189384
87248046.875,-81.18071
87257812.5,-81.3087
87267578.125,-81.35796
87277343.75,-81.35735
87287109.375,-81.09246
87296875.0,-81.22386
87306640.625,-81.26176
87316406.25,-81.18531
87326171.875,-81.3675
87335937.5,-81.35416
87345703.125,-81.39546
87355468.75,-81.45619
87365234.375,-81.402466
87375000.0,-81.268684
87384765.625,-81.436295
87394531.25,-81.32683
87404296.875,-81.288345
87414062.5,-81.22253
87423828.125,-81.15309
87433593.75,-81.289
87443359.375,-81.37989
87453125.0,-81.15439
87462890.625,-81.19755
87472656.25,-81.47786
87482421.875,-81.40607
87492187.5,-81.25293
87501953.125,-81.29726
87511718.75,-81.3613
87521484.375,-81.285034
87531250.0,-81.34952
87541015.625,-81.363716
87550781.25,-81.47044
87560546.875,-81.318596
87570312.5,-81.338585
87580078.125,-81.479996
87589843.75,-81.32884
87599609.375,-81.205536
87609375.0,-81.20732
87619140.625,-81.29223
87628906.25,-81.22468
87638671.875,-81.19107
87648437.5,-81.25045
87658203.125,-81.31558
87667968.75,-81.21761
87677734.375,-81.28226
87687500.0,-81.27725
87697265.625,-81.2289
87707031.25,-81.201035
87716796.875,-81.05939
87726562.5,-81.13539
87736328.125,-81.17593
87746093.75,-81.37184
87755859.375,-81.481926
87765625.0,-81.342125
87775390.625,-81.32564
87785156.25,-81.06403
87794921.875,-80.956924
87804687.5,-81.12071
87814453.125,-81.17275
87824218.75,-81.18148
87833984.375,-81.1387
87843750.0,-81.06223
87853515.625,-81.11016
87863281.25,-81.07094
87873046.875,-80.99223
87882812.5,-81.292404
87892578.125,-81.04142
87902343.75,-80.877045
87912109.375,-80.88661
87921875.0,-81.06693
87931640.625,-81.08146
87941406.25,-80.98835
87951171.875,-80.7471
87960937.5,-80.614395
87970703.125,-80.53551
87980468.75,-80.21965
87990234.375,-80.25239
88000000.0,-84.19598
88009765.625,-80.32507
88019531.25,-80.11857
88029296.875,-80.46771
88039062.5,-80.59669
88048828.125,-80.741714
88058593.75,-80.972275
88068359.375,-81.018364
88078125.0,-81.054726
88087890.625,-80.971664
88097656.25,-80.95717
88107421.875,-80.92386
88117187.5,-81.080124
88126953.125,-80.962616
88136718.75,-81.065445
88146484.375,-81.25229
88156250.0,-81.228874
88166015.625,-81.16496
88175781.25,-81.181244
88185546.875,-81.11253
88195312.5,-81.09425
88205078.125,-81.02798
88214843.75,-81.109406
88224609.375,-81.23834
88234375.0,-81.31641
88244140.625,-81.34301
88253906.25,-81.21002
88263671.875,-81.23717
88273437.5,-81.16141
88283203.125,-81.17715
88292968.75,-81.21445
88302734.375,-81.21811
88312500.0,-81.37395
88322265.625,-81.39635
88332031.25,-81.233406
88341796.875,-81.21804
88351562.5,-81.17326
88361328.125,-81.29334
88371093.75,-81.36598
88380859.375,-81.27082
88390625.0,-81.27059
88400390.625,-81.295975
88410156.25,-81.38286
88419921.875,-81.344765
88429687.5,-81.42361
88439453.125,-81.41194
88449218.75,-81.296234
88458984.375,-81.16879
88468750.0,-81.325516
88478515.625,-81.2991
88488281.25,-81.363754
88498046.875,-81.28178
88507812.5,-81.39914
88517578.125,-81.3778
88527343.75,-81.36765
88537109.375,-81.32969
88546875.0,-81.22531
88556640.625,-81.17824
88566406.25,-81.15113
88576171.875,-81.16539
88585937.5,-81.21309
88595703.125,-81.34612
88605468.75,-81.30693
88615234.375,-81.16004
88625000.0,-81.29345
88634765.625,-81.43734
88644531.25,-81.341866
88654296.875,-81.382484
88664062.5,-81.265114
88673828.125,-81.256676
88683593.75,-81.29792
88693359.375,-81.340706
88703125.0,-81.14206
88712890.625,-81.04869
88722656.25,-81.30966
88732421.875,-81.3668
88742187.5,-81.31829
88751953.125,-81.30856
88761718.75,-81.28961
88771484.375,-81.194496
88781250.0,-81.2872
88791015.625,-81.375465
88800781.25,-81.35339
88810546.875,-81.369545
88820312.5,-81.418655
88830078.125,-81.51649
88839843.75,-81.396515
88849609.375,-81.262405
88859375.0,-81.26594
88869140.625,-81.35711
88878906.25,-81.37322
88888671.875,-81.350105
88898437.5,-81.36687
88908203.125,-81.530266
88917968.75,-81.37538
88927734.375,-81.34096
88937500.0,-81.466965
88947265.625,-81.3491
88957031.25,-81.29822
88966796.875,-81.46786
88976562.5,-81.42688
88986328.125,-81.34953
88996093.75,-81.38991
89005859.375,-81.3625
89015625.0,-81.28641
89025390.625,-81.312035
89035156.25,-81.32234
89044921.875,-81.32892
89054687.5,-81.34291
89064453.125,-81.29821
89074218.75,-81.21467
89083984.375,-81.20057
89093750.0,-81.20204
89103515.625,-81.48122
89113281.25,-81.45003
89123046.875,-81.33827
89132812.5,-81.49417
89142578.125,-81.45031
89152343.75,-81.41861
89162109.375,-81.215515
89171875.0,-81.26687
89181640.625,-81.3897
89191406.25,-81.32445
89201171.875,-81.315094
89210937.5,-81.41983
89220703.125,-81.4788
89230468.75,-81.363846
89240234.375,-81.25487
89250000.0,-81.28144
89259765.625,-81.40257
89269531.25,-81.36155
89279296.875,-81.26624
89289062.5,-81.31929
89298828.125,-81.349525
89308593.75,-81.38328
89318359.375,-81.33431
89328125.0,-81.35013
89337890.625,-81.246635
89347656.25,-81.13964
89357421.875,-80.94391
89367187.5,-81.03619
89376953.125,-81.135284
89386718.75,-81.213295
89396484.375,-81.38047
89406250.0,-81.44975
89416015.625,-81.23116
89425781.25,-81.22135
89435546.875,-81.18644
89445312.5,-81.30134
89455078.125,-81.33322
89464843.75,-81.26304
89474609.375,-81.13013
89484375.0,-81.150055
89494140.625,-81.29637
89503906.25,-81.308174
89513671.875,-81.27858
89523437.5,-81.26942
89533203.125,-81.398636
89542968.75,-81.47172
89552734.375,-81.42067
89562500.0,-81.3079
89572265.625,-81.32134
89582031.25,-81.1752
89591796.875,-81.22066
89601562.5,-81.34934
89611328.125,-81.34804
89621093.75,-81.321884
89630859.375,-81.25484
89640625.0,-81.21463
89650390.625,-81.24218
89660156.25,-81.27707
89669921.875,-81.36522
89679687.5,-81.387115
89689453.125,-81.2184
89699218.75,-81.086845
89708984.375,-81.08328
89718750.0,-81.183426
89728515.625,-81.34999
89738281.25,-81.25107
89748046.875,-81.18354
89757812.5,-81.42975
89767578.125,-81.54148
89777343.75,-81.468155
89787109.375,-81.4279
89796875.0,-81.38312
89806640.625,-81.195694
89816406.25,-81.28768
89826171.875,-81.36143
89835937.5,-81.32549
89845703.125,-81.265526
89855468.75,-81.354034
89865234.375,-81.4186
89875000.0,-81.276245
89884765.625,-81.280174
89894531.25,-81.41989
89904296.875,-81.370964
89914062.5,-81.25432
89923828.125,-81.14499
89933593.75,-81.229294
89943359.375,-81.35169
89953125.0,-81.33722
89962890.625,-81.387024
89972656.25,-81.54138
89982421.875,-81.44657
89992187.5,-81.371376
90001953.125,-81.32535
90011718.75,-81.38351
90021484.375,-81.33156
90031250.0,-81.23257
90041015.625,-81.30517
90050781.25,-81.524506
90060546.875,-81.56041
90070312.5,-81.49507
90080078.125,-81.36284
90089843.75,-81.43792
90099609.375,-81.36801
90109375.0,-81.39366
90119140.625,-81.42282
90128906.25,-81.25455
90138671.875,-81.39119
90148437.5,-81.31224
90158203.125,-81.16321
90167968.75,-81.29889
90177734.375,-81.427345
90187500.0,-81.477905
90197265.625,-81.47209
90207031.25,-81.51491
90216796.875,-81.38847
90226562.5,-81.4097
90236328.125,-81.42381
90246093.75,-81.180885
90255859.375,-81.02866
90265625.0,-81.21974
90275390.625,-81.32643
90285156.25,-81.37165
90294921.875,-81.36691
90304687.5,-81.2066
90314453.125,-81.239105
90324218.75,-81.2168
90333984.375,-81.15759
90343750.0,-81.27042
90353515.625,-81.35886
90363281.25,-81.212006
90373046.875,-81.195786
90382812.5,-81.173325
90392578.125,-81.175575
90402343.75,-81.31827
90412109.375,-81.25314
90421875.0,-81.1747
90431640.625,-81.35687
90441406.25,-81.240555
90451171.875,-81.15708
90460937.5,-81.320694
90470703.125,-81.36661
90480468.75,-81.26134
90490234.375,-81.42995
90500000.0,-81.412964
90509765.625,-81.23514
90519531.25,-81.292885
90529296.875,-81.35136
90539062.5,-81.15651
90548828.125,-81.147644
90558593.75,-81.3282
90568359.375,-81.28457
90578125.0,-81.30742
90587890.625,-81.443954
90597656.25,-81.46964
90607421.875,-81.302635
90617187.5,-81.17959
90626953.125,-81.30418
90636718.75,-81.43521
90646484.375,-81.23808
90656250.0,-81.14354
90666015.625,-81.21795
90675781.25,-81.190475
90685546.875,-81.28907
90695312.5,-81.33586
90705078.125,-81.30845
90714843.75,-81.2325
90724609.375,-81.22766
90734375.0,-81.3675
90744140.625,-81.327515
90753906.25,-81.19221
90763671.875,-81.40837
90773437.5,-81.29563
90783203.125,-81.251724
90792968.75,-81.299965
90802734.375,-81.435234
90812500.0,-81.21975
90822265.625,-81.189125
90832031.25,-81.27125
90841796.875,-81.35677
90851562.5,-81.40679
90861328.125,-81.30344
90871093.75,-81.21955
90880859.375,-81.34503
90890625.0,-81.15139
90900390.625,-81.059555
90910156.25,-81.142746
90919921.875,-81.28093
90929687.5,-81.316345
90939453.125,-81.18049
90949218.75,-81.25938
90958984.375,-81.41751
90968750.0,-81.38428
90978515.625,-81.30466
90988281.25,-81.29111
90998046.875,-81.24452
91007812.5,-81.29365
91017578.125,-81.365524
91027343.75,-81.59234
91037109.375,-81.37017
91046875.0,-81.28666
91056640.625,-81.32877
91066406.25,-81.29677
91076171.875,-81.26964
91085937.5,-81.14521
91095703.125,-81.18141
91105468.75,-81.26862
91115234.375,-81.351395
91125000.0,-81.29141
91134765.625,-81.434616
91144531.25,-81.35245
91154296.875,-81.16043
91164062.5,-81.22278
91173828.125,-81.2976
91183593.75,-81.31265
91193359.375,-81.272064
91203125.0,-81.32544
91212890.625,-81.31592
91222656.25,-81.193146
91232421.875,-81.13864
91242187.5,-81.24554
91251953.125,-81.290016
91261718.75,-81.38923
91271484.375,-81.27892
91281250.0,-81.28993
91291015.625,-81.12906
91300781.25,-81.18389
91310546.875,-81.37964
91320312.5,-81.36839
91330078.125,-81.42068
91339843.75,-81.37847
91349609.375,-81.36734
91359375.0,-81.16159
91369140.625,-81.19943
91378906.25,-81.19327
91388671.875,-81.32546
91398437.5,-81.27228
91408203.125,-81.2722
91417968.75,-81.39446
91427734.375,-81.380325
91437500.0,-81.26596
91447265.625,-81.289276
91457031.25,-81.38419
91466796.875,-81.368675
91476562.5,-81.47328
91486328.125,-81.43962
91496093.75,-81.31651
91505859.375,-81.391556
91515625.0,-81.51836
91525390.625,-81.27321
91535156.25,-81.25289
91544921.875,-81.31061
91554687.5,-81.36351
91564453.125,-81.31499
91574218.75,-81.44721
91583984.375,-81.24773
91593750.0,-81.2701
91603515.625,-81.30235
91613281.25,-81.31894
91623046.875,-81.16543
91632812.5,-81.17633
91642578.125,-81.33271
91652343.75,-81.35258
91662109.375,-81.43594
91671875.0,-81.33225
91681640.625,-81.27002
91691406.25,-81.12839
91701171.875,-80.70896
91710937.5,-79.90561
91720703.125,-79.78205
91730468.75,-80.187996
91740234.375,-80.71946
91750000.0,-81.10469
91759765.625,-81.14379
91769531.25,-81.03841
91779296.875,-81.19293
91789062.5,-81.267426
91798828.125,-81.1428
91808593.75,-81.14061
91818359.375,-81.22936
91828125.0,-81.193085
91837890.625,-81.2053
91847656.25,-81.25264
91857421.875,-81.24085
91867187.5,-81.253426
91876953.125,-81.30593
91886718.75,-81.17061
91896484.375,-81.18173
91906250.0,-81.22697
91916015.625,-81.20915
91925781.25,-81.23511
91935546.875,-81.319
91945312.5,-81.14317
91955078.125,-81.29506
91964843.75,-81.37086
91974609.375,-81.48563
91984375.0,-81.4874
91994140.625,-81.26304
92003906.25,-81.259796
92013671.875,-81.38898
92023437.5,-81.4043
92033203.125,-81.25969
92042968.75,-81.32422
92052734.375,-81.28322
92062500.0,-81.17476
92072265.625,-81.18958
92082031.25,-81.14853
92091796.875,-81.14933
92101562.5,-81.286705
92111328.125,-81.27753
92121093.75,-81.431465
92130859.375,-81.41449
92140625.0,-81.22247
92150390.625,-81.1606
92160156.25,-81.20584
92169921.875,-81.08087
92179687.5,-81.15211
92189453.125,-81.12877
92199218.75,-81.1416
92208984.375,-81.314384
92218750.0,-81.284744
92228515.625,-81.283485
92238281.25,-81.27452
92248046.875,-81.27261
92257812.5,-81.40428
92267578.125,-81.341125
92277343.75,-81.162964
92287109.375,-81.09148
92296875.0,-81.10355
92306640.625,-81.03714
92316406.25,-81.201904
92326171.875,-81.2606
92335937.5,-81.19427
92345703.125,-81.31867
92355468.75,-81.48241
92365234.375,-81.443245
92375000.0,-81.23279
92384765.625,-81.18149
92394531.25,-81.136925
92404296.875,-81.24305
92414062.5,-81.283905
92423828.125,-81.18263
92433593.75,-81.25549
92443359.375,-81.22038
92453125.0,-81.19891
92462890.625,-81.25034
92472656.25,-81.257126
92482421.875,-81.08174
92492187.5,-81.181984
92501953.125,-81.23378
92511718.75,-81.08983
92521484.375,-81.19393
92531250.0,-81.34736
92541015.625,-81.270226
92550781.25,-81.31752
92560546.875,-81.34629
92570312.5,-81.371155
92580078.125,-81.3224
92589843.75,-81.15918
92599609.375,-81.11436
92609375.0,-81.20655
92619140.625,-81.46167
92628906.25,-81.35487
92638671.875,-81.06259
92648437.5,-81.09841
92658203.125,-81.1846
92667968.75,-81.269104
92677734.375,-81.2355
92687500.0,-81.16394
92697265.625,-81.23149
92707031.25,-81.27395
92716796.875,-81.229744
92726562.5,-81.16668
92736328.125,-81.24431
92746093.75,-81.343124
92755859.375,-81.23674
92765625.0,-81.30245
92775390.625,-81.326866
92785156.25,-81.27743
92794921.875,-81.30087
92804687.5,-81.24353
92814453.125,-81.29777
92824218.75,-81.2193
92833984.375,-81.272736
92843750.0,-81.297714
92853515.625,-81.41722
92863281.25,-81.38609
92873046.875,-81.40408
92882812.5,-81.29853
92892578.125,-81.27139
92902343.75,-81.29753
92912109.375,-81.23748
92921875.0,-81.17438
92931640.625,-81.21089
92941406.25,-81.19834
92951171.875,-80.97911
92960937.5,-80.99083
92970703.125,-81.18649
92980468.75,-81.25047
92990234.375,-81.23168
93000000.0,-81.14659
93009765.625,-81.14193
93019531.25,-81.084335
93029296.875,-81.08344
93039062.5,-81.087906
93048828.125,-81.16487
93058593.75,-81.154945
93068359.375,-81.349785
93078125.0,-81.23397
93087890.625,-81.11946
93097656.25,-81.1434
93107421.875,-81.28113
93117187.5,-81.2285
93126953.125,-81.15604
93136718.75,-81.14847
93146484.375,-81.11627
93156250.0,-81.08995
93166015.625,-81.3138
93175781.25,-81.269165
93185546.875,-81.18775
93195312.5,-81.22383
93205078.125,-81.104675
93214843.75,-81.17139
93224609.375,-81.13347
93234375.0,-81.22947
93244140.625,-81.38687
93253906.25,-81.23356
93263671.875,-81.15692
93273437.5,-81.131165
93283203.125,-81.30444
93292968.75,-81.32652
93302734.375,-81.11637
93312500.0,-81.1034
93322265.625,-81.128456
93332031.25,-81.39701
93341796.875,-81.31406
93351562.5,-81.14696
93361328.125,-81.29455
93371093.75,-81.221954
93380859.375,-81.186615
93390625.0,-81.105644
93400390.625,-81.26837
93410156.25,-81.228294
93419921.875,-81.14606
93429687.5,-81.131584
93439453.125,-81.049
93449218.75,-81.10787
93458984.375,-81.20521
93468750.0,-81.09787
93478515.625,-81.131905
93488281.25,-81.22084
93498046.875,-81.22811
93507812.5,-81.34839
93517578.125,-81.30944
93527343.75,-81.20918
93537109.375,-81.23299
93546875.0,-81.24872
93556640.625,-81.39096
93566406.25,-81.54369
93576171.875,-81.2503
93585937.5,-81.1512
93595703.125,-81.25615
93605468.75,-81.28964
93615234.375,-81.2525
93625000.0,-81.2439
93634765.625,-81.255486
93644531.25,-81.25531
93654296.875,-81.212555
93664062.5,-81.05992
93673828.125,-80.928406
93683593.75,-81.033035
93693359.375,-81.43118
93703125.0,-81.44234
93712890.625,-81.26541
93722656.25,-81.240395
93732421.875,-81.21338
93742187.5,-81.24379
93751953.125,-81.1207
93761718.75,-81.1091
93771484.375,-81.15441
93781250.0,-81.30951
93791015.625,-81.29597
93800781.25,-81.185425
93810546.875,-81.14869
93820312.5,-81.11844
93830078.125,-81.05711
93839843.75,-81.10096
93849609.375,-81.14169
93859375.0,-81.25372
93869140.625,-81.144104
93878906.25,-81.119995
93888671.875,-81.16375
93898437.5,-81.22049
93908203.125,-81.271774
93917968.75,-81.20248
93927734.375,-81.04996
93937500.0,-81.100235
93947265.625,-81.22399
93957031.25,-81.249016
93966796.875,-81.20836
93976562.5,-81.22715
93986328.125,-81.2688
93996093.75,-81.20593
94005859.375,-81.22471
94015625.0,-81.274605
94025390.625,-81.23223
94035156.25,-81.23549
94044921.875,-81.0897
94054687.5,-81.26277
94064453.125,-81.38568
94074218.75,-81.0927
94083984.375,-81.0672
94093750.0,-81.165985
94103515.625,-81.10542
94113281.25,-81.26682
94123046.875,-81.343544
94132812.5,-81.366455
94142578.125,-81.07514
94152343.75,-81.045654
94162109.375,-81.25144
94171875.0,-81.12812
94181640.625,-80.95798
94191406.25,-80.88533
94201171.875,-80.8858
94210937.5,-81.12891
94220703.125,-81.329735
94230468.75,-81.20944
94240234.375,-81.081314
94250000.0,-81.05388
94259765.625,-81.195305
94269531.25,-81.236404
94279296.875,-81.12155
94289062.5,-81.12462
94298828.125,-81.02954
94308593.75,-81.09802
94318359.375,-81.07128
94328125.0,-81.10432
94337890.625,-80.89514
94347656.25,-81.02596
94357421.875,-81.14688
94367187.5,-81.17871
94376953.125,-81.1837
94386718.75,-81.3184
94396484.375,-81.192474
94406250.0,-81.12415
94416015.625,-81.16502
94425781.25,-81.233185
94435546.875,-81.20166
94445312.5,-81.3272
94455078.125,-81.162476
94464843.75,-81.213646
94474609.375,-81.26778
94484375.0,-81.15876
94494140.625,-81.01474
94503906.25,-81.15909
94513671.875,-81.02373
94523437.5,-81.07414
94533203.125,-81.13293
94542968.75,-81.15604
94552734.375,-81.309975
94562500.0,-81.17575
94572265.625,-81.19644
94582031.25,-81.11045
94591796.875,-81.18643
94601562.5,-81.36677
94611328.125,-81.194145
94621093.75,-81.09582
94630859.375,-81.211586
94640625.0,-81.215195
94650390.625,-81.13243
94660156.25,-81.11235
94669921.875,-81.08682
94679687.5,-81.12045
94689453.125,-81.339554
94699218.75,-81.367195
94708984.375,-81.263885
94718750.0,-81.33156
94728515.625,-81.26741
94738281.25,-81.18328
94748046.875,-81.11604
94757812.5,-81.14063
94767578.125,-81.226135
94777343.75,-81.29029
94787109.375,-81.3596
94796875.0,-81.27473
94806640.625,-81.14537
94816406.25,-81.094826
94826171.875,-81.1143
94835937.5,-81.1841
94845703.125,-81.14318
94855468.75,-81.09605
94865234.375,-81.222916
94875000.0,-81.172134
94884765.625,-81.21627
94894531.25,-81.18592
94904296.875,-81.07674
94914062.5,-80.973755
94923828.125,-81.11698
94933593.75,-81.29349
94943359.375,-81.139404
94953125.0,-81.147224
94962890.625,-81.21784
94972656.25,-81.185776
94982421.875,-81.1983
94992187.5,-81.063225
95001953.125,-81.12883
95011718.75,-81.36304
95021484.375,-81.29797
95031250.0,-81.138245
95041015.625,-81.11113
95050781.25,-80.913376
95060546.875,-80.92651
95070312.5,-81.06329
95080078.125,-80.924774
95089843.75,-80.42909
95099609.375,-80.12004
95109375.0,-79.98284
95119140.625,-80.14134
95128906.25,-80.331764
95138671.875,-80.62188
95148437.5,-80.85766
95158203.125,-81.09079
95167968.75,-81.259346
95177734.375,-81.12502
95187500.0,-80.992165
95197265.625,-81.02553
95207031.25,-81.07968
95216796.875,-80.951065
95226562.5,-81.0759
95236328.125,-81.0485
95246093.75,-81.00289
95255859.375,-81.145996
95265625.0,-81.071976
95275390.625,-81.23028
95285156.25,-81.20025
95294921.875,-81.111
95304687.5,-80.99039
95314453.125,-81.03949
95324218.75,-81.05173
95333984.375,-81.078384
95343750.0,-81.05876
95353515.625,-81.222374
95363281.25,-81.26731
95373046.875,-81.05534
95382812.5,-80.99541
95392578.125,-80.919846
95402343.75,-80.93956
95412109.375,-80.94163
95421875.0,-81.035995
95431640.625,-81.04995
95441406.25,-81.02118
95451171.875,-81.12934
95460937.5,-81.15886
95470703.125,-81.13715
95480468.75,-81.134705
95490234.375,-81.08349
95500000.0,-81.064896
95509765.625,-81.066956
95519531.25,-81.01715
95529296.875,-81.08471
95539062.5,-81.13652
95548828.125,-81.12538
95558593.75,-81.202614
95568359.375,-81.13105
95578125.0,-81.06803
95587890.625,-80.91225
95597656.25,-81.03233
95607421.875,-81.017075
95617187.5,-81.01915
95626953.125,-81.13817
95636718.75,-80.986115
95646484.375,-81.0661
95656250.0,-80.860054
95666015.625,-80.66737
95675781.25,-80.50858
95685546.875,-80.120895
95695312.5,-80.32848
95705078.125,-80.6389
95714843.75,-80.73776
95724609.375,-80.76698
95734375.0,-80.63598
95744140.625,-80.69225
95753906.25,-80.9644
95763671.875,-81.065704
95773437.5,-81.013374
95783203.125,-81.03233
95792968.75,-81.0594
95802734.375,-81.114006
95812500.0,-81.09412
95822265.625,-81.0896
95832031.25,-81.05812
95841796.875,-80.95795
95851562.5,-81.07727
95861328.125,-81.10841
95871093.75,-81.08664
95880859.375,-80.93514
95890625.0,-80.914185
95900390.625,-81.082
95910156.25,-80.980255
95919921.875,-80.93475
95929687.5,-80.91877
95939453.125,-80.98988
95949218.75,-81.03563
95958984.375,-81.11948
95968750.0,-81.050064
95978515.625,-81.169426
95988281.25,-81.06154
95998046.875,-79.82871
96007812.5,-80.44145
96017578.125,-80.968796
96027343.75,-81.04999
96037109.375,-81.09334
96046875.0,-81.07215
96056640.625,-81.142845
96066406.25,-81.204544
96076171.875,-80.93754
96085937.5,-81.03502
96095703.125,-81.198
96105468.75,-81.24794
96115234.375,-81.19031
96125000.0,-81.06618
96134765.625,-81.06025
96144531.25,-81.15273
96154296.875,-81.01254
96164062.5,-81.063194
96173828.125,-81.15755
96183593.75,-81.117004
96193359.375,-81.10516
96203125.0,-80.907135
96212890.625,-80.97293
96222656.25,-81.135315
96232421.875,-81.11083
96242187.5,-81.06314
96251953.125,-81.00284
96261718.75,-80.994606
96271484.375,-81.03322
96281250.0,-80.52845
96291015.625,-78.34359
96300781.25,-76.53251
96310546.875,-77.89758
96320312.5,-80.32944
96330078.125,-80.852585
96339843.75,-81.069046
96349609.375,-80.88469
96359375.0,-81.003296
96369140.625,-81.1526
96378906.25,-81.22357
96388671.875,-81.19299
96398437.5,-81.21562
96408203.125,-81.16047
96417968.75,-81.12988
96427734.375,-81.00559
96437500.0,-81.00206
96447265.625,-81.134445
96457031.25,-81.02726
96466796.875,-81.100876
96476562.5,-81.08034
96486328.125,-81.1512
96496093.75,-81.210014
96505859.375,-81.23088
96515625.0,-81.16662
96525390.625,-81.08097
96535156.25,-81.0784
96544921.875,-81.21078
96554687.5,-81.03822
96564453.125,-81.0545
96574218.75,-81.128235
96583984.375,-81.18359
96593750.0,-80.953255
96603515.625,-80.483635
96613281.25,-80.62294
96623046.875,-80.984024
96632812.5,-81.02131
96642578.125,-81.15202
96652343.75,-81.06327
96662109.375,-80.97655
96671875.0,-81.178276
96681640.625,-81.07377
96691406.25,-80.87787
96701171.875,-80.926025
96710937.5,-81.08337
96720703.125,-81.21693
96730468.75,-81.12436
96740234.375,-81.07881
96750000.0,-81.128235
96759765.625,-81.014824
96769531.25,-80.92434
96779296.875,-81.08284
96789062.5,-81.1584
96798828.125,-81.14006
96808593.75,-81.10283
96818359.375,-81.28579
96828125.0,-81.18623
96837890.625,-81.125885
96847656.25,-81.17718
96857421.875,-81.00169
96867187.5,-80.98449
96876953.125,-81.06288
96886718.75,-81.15464
96896484.375,-81.31796
96906250.0,-81.16342
96916015.625,-80.928055
96925781.25,-81.07734
96935546.875,-81.18645
96945312.5,-81.11807
96955078.125,-81.192505
96964843.75,-81.3288
96974609.375,-81.18839
96984375.0,-81.04695
96994140.625,-81.13555
97003906.25,-81.24478
97013671.875,-81.143005
97023437.5,-80.99906
97033203.125,-80.97661
97042968.75,-81.11165
97052734.375,-81.05399
97062500.0,-80.998566
97072265.625,-81.14014
97082031.25,-81.10863
97091796.875,-81.15418
97101562.5,-81.130974
97111328.125,-81.15396
97121093.75,-81.06146
97130859.375,-81.0931
97140625.0,-81.24
97150390.625,-81.11972
97160156.25,-81.14811
97169921.875,-81.234245
97179687.5,-81.15173
97189453.125,-81.13522
97199218.75,-81.2271
97208984.375,-81.11806
97218750.0,-81.04324
97228515.625,-81.09102
97238281.25,-81.013214
97248046.875,-80.82658
97257812.5,-80.82533
97267578.125,-81.042854
97277343.75,-81.044464
97287109.375,-81.05473
97296875.0,-81.14473
97306640.625,-81.28342
97316406.25,-81.19945
97326171.875,-81.16497
97335937.5,-81.12701
97345703.125,-81.15602
97355468.75,-81.11808
97365234.375,-81.11767
97375000.0,-81.23482
97384765.625,-81.045364
97394531.25,-81.104095
97404296.875,-81.21659
97414062.5,-81.31805
97423828.125,-81.253815
97433593.75,-81.28414
97443359.375,-81.163345
97453125.0,-81.00925
97462890.625,-80.95024
97472656.25,-81.07115
97482421.875,-81.103325
97492187.5,-80.91393
97501953.125,-81.09575
97511718.75,-81.23048
97521484.375,-81.088326
97531250.0,-81.161575
97541015.625,-81.322014
97550781.25,-81.32445
97560546.875,-81.23303
97570312.5,-81.11871
97580078.125,-81.24275
97589843.75,-81.06151
97599609.375,-81.151665
97609375.0,-81.26138
97619140.625,-81.11662
97628906.25,-81.148056
97638671.875,-81.183365
97648437.5,-81.12957
97658203.125,-81.29205
97667968.75,-81.20591
97677734.375,-81.15257
97687500.0,-81.07482
97697265.625,-81.1654
97707031.25,-81.06294
97716796.875,-81.07258
97726562.5,-81.0724
97736328.125,-81.11214
97746093.75,-81.01826
97755859.375,-81.101364
97765625.0,-81.13743
97775390.625,-81.210205
97785156.25,-81.23262
97794921.875,-81.21733
97804687.5,-81.19751
97814453.125,-81.091835
97824218.75,-81.100624
97833984.375,-81.00255
97843750.0,-81.140076
97853515.625,-81.10156
97863281.25,-81.065895
97873046.875,-81.09857
97882812.5,-81.21413
97892578.125,-81.19382
97902343.75,-81.046265
97912109.375,-81.09091
97921875.0,-81.12746
97931640.625,-81.06202
97941406.25,-81.146355
97951171.875,-81.18806
97960937.5,-81.25069
97970703.125,-81.29601
97980468.75,-81.177475
97990234.375,-81.117065
