Frequency (Hz),PSD (dBm)
88000000.0,-59.419945
88009765.625,-60.444088
88019531.25,-63.527626
88029296.875,-63.881172
88039062.5,-64.01908
88048828.125,-64.196304
88058593.75,-64.26074
88068359.375,-64.37868
88078125.0,-64.52412
88087890.625,-64.554985
88097656.25,-64.60979
88107421.875,-64.63542
88117187.5,-64.546265
88126953.125,-64.52148
88136718.75,-64.56605
88146484.375,-64.603004
88156250.0,-64.68659
88166015.625,-64.73978
88175781.25,-64.816444
88185546.875,-64.794846
88195312.5,-64.76878
88205078.125,-64.8063
88214843.75,-64.774635
88224609.375,-64.77204
88234375.0,-64.757095
88244140.625,-64.73342
88253906.25,-64.73972
88263671.875,-64.8631
88273437.5,-64.903175
88283203.125,-64.95408
88292968.75,-64.98818
88302734.375,-64.92628
88312500.0,-64.9749
88322265.625,-64.95604
88332031.25,-64.923386
88341796.875,-64.978455
88351562.5,-64.938065
88361328.125,-64.93237
88371093.75,-64.98355
88380859.375,-65.0031
88390625.0,-65.00495
88400390.625,-65.05712
88410156.25,-65.117065
88419921.875,-65.10463
88429687.5,-65.052284
88439453.125,-65.04662
88449218.75,-65.06429
88458984.375,-65.07323
88468750.0,-65.09764
88478515.625,-65.03595
88488281.25,-65.02573
88498046.875,-65.04684
88507812.5,-65.00505
88517578.125,-65.00273
88527343.75,-64.99369
88537109.375,-64.89618
88546875.0,-64.8388
88556640.625,-64.855484
88566406.25,-64.82272
88576171.875,-64.75259
88585937.5,-64.693436
88595703.125,-64.68785
88605468.75,-64.687546
88615234.375,-64.651115
88625000.0,-64.53475
88634765.625,-64.42994
88644531.25,-64.42395
88654296.875,-64.43459
88664062.5,-64.38277
88673828.125,-64.28478
88683593.75,-64.26324
88693359.375,-64.26591
88703125.0,-64.194786
88712890.625,-64.17098
88722656.25,-64.21085
88732421.875,-64.19516
88742187.5,-64.12912
88751953.125,-64.09488
88761718.75,-64.115776
88771484.375,-64.08355
88781250.0,-64.07564
88791015.625,-64.09043
88800781.25,-64.07688
88810546.875,-64.0636
88820312.5,-64.02955
88830078.125,-64.00458
88839843.75,-64.04516
88849609.375,-64.03623
88859375.0,-64.08372
88869140.625,-64.15335
88878906.25,-64.17748
88888671.875,-64.272316
88898437.5,-64.343056
88908203.125,-64.341995
88917968.75,-64.411964
88927734.375,-64.52292
88937500.0,-64.613174
88947265.625,-64.70617
88957031.25,-64.68866
88966796.875,-64.76538
88976562.5,-64.874214
88986328.125,-64.98469
88996093.75,-65.0523
89005859.375,-65.14347
89015625.0,-65.23042
89025390.625,-65.36723
89035156.25,-65.49546
89044921.875,-65.56232
89054687.5,-65.594604
89064453.125,-65.69477
89074218.75,-65.834694
89083984.375,-65.878365
89093750.0,-65.977425
89103515.625,-66.08428
89113281.25,-66.09392
89123046.875,-66.199844
89132812.5,-66.312454
89142578.125,-66.44251
89152343.75,-66.44626
89162109.375,-66.52871
89171875.0,-66.59619
89181640.625,-66.645645
89191406.25,-66.71095
89201171.875,-66.75027
89210937.5,-66.867355
89220703.125,-66.89759
89230468.75,-66.91032
89240234.375,-66.97595
89250000.0,-66.978645
89259765.625,-67.01681
89269531.25,-66.9577
89279296.875,-66.95276
89289062.5,-67.0546
89298828.125,-67.065674
89308593.75,-66.937485
89318359.375,-66.95189
89328125.0,-66.980316
89337890.625,-66.999115
89347656.25,-66.887115
89357421.875,-66.915665
89367187.5,-66.96071
89376953.125,-66.90965
89386718.75,-66.85483
89396484.375,-66.83055
89406250.0,-66.76816
89416015.625,-66.80846
89425781.25,-66.75162
89435546.875,-66.74626
89445312.5,-66.76461
89455078.125,-66.75278
89464843.75,-66.71083
89474609.375,-66.65604
89484375.0,-66.619934
89494140.625,-66.52302
89503906.25,-66.461494
89513671.875,-66.50094
89523437.5,-66.476685
89533203.125,-66.417145
89542968.75,-66.303894
89552734.375,-66.335556
89562500.0,-66.36346
89572265.625,-66.236664
89582031.25,-66.175606
89591796.875,-66.208984
89601562.5,-66.15637
89611328.125,-66.10218
89621093.75,-66.11388
89630859.375,-66.01352
89640625.0,-65.95447
89650390.625,-65.954926
89660156.25,-65.96463
89669921.875,-65.88466
89679687.5,-65.83396
89689453.125,-65.81267
89699218.75,-65.82083
89708984.375,-65.71084
89718750.0,-65.65971
89728515.625,-65.631516
89738281.25,-65.663055
89748046.875,-65.62131
89757812.5,-65.44205
89767578.125,-65.53761
89777343.75,-65.600555
89787109.375,-65.51546
89796875.0,-65.38232
89806640.625,-65.39965
89816406.25,-65.412094
89826171.875,-65.3158
89835937.5,-65.29343
89845703.125,-65.191154
89855468.75,-64.93373
89865234.375,-64.92366
89875000.0,-65.13962
89884765.625,-64.97531
89894531.25,-64.83245
89904296.875,-64.84649
89914062.5,-64.81553
89923828.125,-64.69066
89933593.75,-64.63502
89943359.375,-64.47514
89953125.0,-64.380585
89962890.625,-64.17048
89972656.25,-64.2753
89982421.875,-63.449234
89992187.5,-62.366558
90001953.125,-62.308403
90011718.75,-62.866478
90021484.375,-63.70712
90031250.0,-64.10699
90041015.625,-64.41249
90050781.25,-64.49597
90060546.875,-64.33432
90070312.5,-64.527725
90080078.125,-64.81396
90089843.75,-64.876335
90099609.375,-64.91457
90109375.0,-64.80531
90119140.625,-64.85037
90128906.25,-64.996475
90138671.875,-65.09893
90148437.5,-65.145195
90158203.125,-65.21026
90167968.75,-65.2039
90177734.375,-65.26682
90187500.0,-65.43039
90197265.625,-65.45094
90207031.25,-65.438225
90216796.875,-65.44075
90226562.5,-65.44927
90236328.125,-65.5782
90246093.75,-65.51795
90255859.375,-65.50796
90265625.0,-65.66133
90275390.625,-65.7296
90285156.25,-65.749344
90294921.875,-65.75591
90304687.5,-65.76503
90314453.125,-65.84761
90324218.75,-65.84752
90333984.375,-65.86088
90343750.0,-65.96695
90353515.625,-65.9706
90363281.25,-66.00893
90373046.875,-66.09298
90382812.5,-66.14848
90392578.125,-66.13605
90402343.75,-66.18232
90412109.375,-66.23065
90421875.0,-66.26427
90431640.625,-66.29076
90441406.25,-66.344505
90451171.875,-66.45789
90460937.5,-66.44667
90470703.125,-66.477196
90480468.75,-66.46142
90490234.375,-66.477806
90500000.0,-66.50639
90509765.625,-66.620316
90519531.25,-66.61979
90529296.875,-66.61217
90539062.5,-66.63475
90548828.125,-66.69299
90558593.75,-66.711205
90568359.375,-66.72826
90578125.0,-66.79462
90587890.625,-66.878624
90597656.25,-66.875885
90607421.875,-66.91112
90617187.5,-66.88162
90626953.125,-66.99379
90636718.75,-67.0686
90646484.375,-67.07187
90656250.0,-67.01358
90666015.625,-67.08836
90675781.25,-67.04424
90685546.875,-67.03624
90695312.5,-67.12264
90705078.125,-67.05049
90714843.75,-67.07384
90724609.375,-66.95537
90734375.0,-67.00496
90744140.625,-67.01291
90753906.25,-66.95167
90763671.875,-66.936516
90773437.5,-66.90218
90783203.125,-66.90669
90792968.75,-66.889275
90802734.375,-66.84082
90812500.0,-66.75437
90822265.625,-66.742714
90832031.25,-66.673035
90841796.875,-66.61366
90851562.5,-66.461494
90861328.125,-66.368576
90871093.75,-66.30896
90880859.375,-66.22008
90890625.0,-66.11456
90900390.625,-66.02238
90910156.25,-65.90938
90919921.875,-65.80531
90929687.5,-65.713394
90939453.125,-65.66261
90949218.75,-65.59822
90958984.375,-65.5009
90968750.0,-65.40543
90978515.625,-65.305756
90988281.25,-65.1852
90998046.875,-65.07835
91007812.5,-65.0134
91017578.125,-64.919174
91027343.75,-64.83905
91037109.375,-64.80338
91046875.0,-64.67199
91056640.625,-64.604065
91066406.25,-64.583336
91076171.875,-64.517426
91085937.5,-64.421974
91095703.125,-64.37196
91105468.75,-64.30762
91115234.375,-64.256065
91125000.0,-64.23419
91134765.625,-64.19355
91144531.25,-64.145546
91154296.875,-64.20541
91164062.5,-64.18371
91173828.125,-64.09595
91183593.75,-63.995735
91193359.375,-64.02869
91203125.0,-64.076546
91212890.625,-64.0403
91222656.25,-64.03044
91232421.875,-64.05635
91242187.5,-64.085266
91251953.125,-64.082054
91261718.75,-64.08448
91271484.375,-64.07904
91281250.0,-64.15372
91291015.625,-64.20331
91300781.25,-64.245705
91310546.875,-64.3303
91320312.5,-64.35598
91330078.125,-64.31278
91339843.75,-64.34227
91349609.375,-64.40292
91359375.0,-64.52973
91369140.625,-64.56828
91378906.25,-64.562325
91388671.875,-64.581
91398437.5,-64.70938
91408203.125,-64.81944
91417968.75,-64.82871
91427734.375,-64.86085
91437500.0,-64.8949
91447265.625,-64.91131
91457031.25,-64.900314
91466796.875,-64.92976
91476562.5,-65.013626
91486328.125,-65.08305
91496093.75,-65.08893
91505859.375,-65.02344
91515625.0,-65.06858
91525390.625,-65.14018
91535156.25,-65.23555
91544921.875,-65.26947
91554687.5,-65.215385
91564453.125,-65.19051
91574218.75,-65.19555
91583984.375,-65.156944
91593750.0,-65.16731
91603515.625,-65.15836
91613281.25,-65.178764
91623046.875,-65.14298
91632812.5,-65.15545
91642578.125,-65.1428
91652343.75,-65.18008
91662109.375,-65.15014
91671875.0,-65.175
91681640.625,-65.18105
91691406.25,-65.15713
91701171.875,-65.1919
91710937.5,-65.209465
91720703.125,-65.185196
91730468.75,-65.14489
91740234.375,-65.12409
91750000.0,-65.227875
91759765.625,-65.21422
91769531.25,-65.143974
91779296.875,-65.10426
91789062.5,-65.11053
91798828.125,-65.0924
91808593.75,-65.082466
91818359.375,-65.13844
91828125.0,-65.12021
91837890.625,-65.11109
91847656.25,-65.12135
91857421.875,-65.1247
91867187.5,-65.0327
91876953.125,-64.7732
91886718.75,-64.813835
91896484.375,-65.10953
91906250.0,-65.10575
91916015.625,-65.039665
91925781.25,-64.9957
91935546.875,-64.85106
91945312.5,-64.7193
91955078.125,-64.7864
91964843.75,-64.523056
91974609.375,-63.741074
91984375.0,-62.908554
91994140.625,-61.42147
92003906.25,-61.898148
92013671.875,-64.05884
92023437.5,-64.712006
92033203.125,-64.62896
92042968.75,-64.632065
92052734.375,-64.65407
92062500.0,-64.671074
92072265.625,-64.680115
92082031.25,-64.65405
92091796.875,-64.790825
92101562.5,-64.84749
92111328.125,-64.83781
92121093.75,-64.929886
92130859.375,-64.93377
92140625.0,-64.9263
92150390.625,-64.95618
92160156.25,-65.01399
92169921.875,-64.9977
92179687.5,-64.96848
92189453.125,-64.928276
92199218.75,-65.004555
92208984.375,-65.08305
92218750.0,-65.09429
92228515.625,-65.08833
92238281.25,-65.09318
92248046.875,-65.15933
92257812.5,-65.18684
92267578.125,-65.22361
92277343.75,-65.224556
92287109.375,-65.197586
92296875.0,-65.221954
92306640.625,-65.2402
92316406.25,-65.29526
92326171.875,-65.32053
92335937.5,-65.31231
92345703.125,-65.21536
92355468.75,-65.22714
92365234.375,-65.30044
92375000.0,-65.34227
92384765.625,-65.34133
92394531.25,-65.34156
92404296.875,-65.332375
92414062.5,-65.34587
92423828.125,-65.41262
92433593.75,-65.36743
92443359.375,-65.37898
92453125.0,-65.3656
92462890.625,-65.34508
92472656.25,-65.30669
92482421.875,-65.24354
92492187.5,-65.20492
92501953.125,-65.175545
92511718.75,-65.187454
92521484.375,-65.19355
92531250.0,-65.22867
92541015.625,-65.1931
92550781.25,-65.17039
92560546.875,-65.127464
92570312.5,-65.09655
92580078.125,-65.098854
92589843.75,-65.10627
92599609.375,-65.14879
92609375.0,-65.11259
92619140.625,-65.05554
92628906.25,-65.042694
92638671.875,-65.03856
92648437.5,-65.09726
92658203.125,-65.07704
92667968.75,-65.03182
92677734.375,-65.064606
92687500.0,-65.09587
92697265.625,-65.09751
92707031.25,-65.10507
92716796.875,-65.14075
92726562.5,-65.19357
92736328.125,-65.187065
92746093.75,-65.196365
92755859.375,-65.23841
92765625.0,-65.261765
92775390.625,-65.33294
92785156.25,-65.43965
92794921.875,-65.49907
92804687.5,-65.50308
92814453.125,-65.478584
92824218.75,-65.49681
92833984.375,-65.61973
92843750.0,-65.63394
92853515.625,-65.69771
92863281.25,-65.74554
92873046.875,-65.747856
92882812.5,-65.767136
92892578.125,-65.78828
92902343.75,-65.78255
92912109.375,-65.833336
92921875.0,-65.8931
92931640.625,-65.91159
92941406.25,-65.938034
92951171.875,-65.997116
92960937.5,-65.95462
92970703.125,-65.94038
92980468.75,-65.95401
92990234.375,-65.928505
93000000.0,-65.91022
93009765.625,-65.8722
93019531.25,-65.87732
93029296.875,-65.784294
93039062.5,-65.78373
93048828.125,-65.804565
93058593.75,-65.70996
93068359.375,-65.718475
93078125.0,-65.70129
93087890.625,-65.683205
93097656.25,-65.616806
93107421.875,-65.605576
93117187.5,-65.66535
93126953.125,-65.68374
93136718.75,-65.65372
93146484.375,-65.63341
93156250.0,-65.61065
93166015.625,-65.64612
93175781.25,-65.67153
93185546.875,-65.65683
93195312.5,-65.61978
93205078.125,-65.63819
93214843.75,-65.62425
93224609.375,-65.650925
93234375.0,-65.689384
93244140.625,-65.65904
93253906.25,-65.664406
93263671.875,-65.76465
93273437.5,-65.73954
93283203.125,-65.78481
93292968.75,-65.84154
93302734.375,-65.876465
93312500.0,-65.90423
93322265.625,-65.91884
93332031.25,-65.89431
93341796.875,-65.890625
93351562.5,-65.97627
93361328.125,-65.97478
93371093.75,-65.9426
93380859.375,-65.879234
93390625.0,-65.854004
93400390.625,-65.8969
93410156.25,-65.8789
93419921.875,-65.81999
93429687.5,-65.7476
93439453.125,-65.65965
93449218.75,-65.57439
93458984.375,-65.45215
93468750.0,-65.37926
93478515.625,-65.327484
93488281.25,-65.24397
93498046.875,-65.12752
93507812.5,-64.95485
93517578.125,-64.83353
93527343.75,-64.71652
93537109.375,-64.64389
93546875.0,-64.57897
93556640.625,-64.48478
93566406.25,-64.33488
93576171.875,-64.1785
93585937.5,-64.064026
93595703.125,-63.987904
93605468.75,-63.866497
93615234.375,-63.704826
93625000.0,-63.612885
93634765.625,-63.51496
93644531.25,-63.417717
93654296.875,-63.41927
93664062.5,-63.405148
93673828.125,-63.289536
93683593.75,-63.291054
93693359.375,-63.27379
93703125.0,-63.21283
93712890.625,-63.20648
93722656.25,-63.18386
93732421.875,-63.145782
93742187.5,-63.133102
93751953.125,-63.106953
93761718.75,-63.12478
93771484.375,-63.135944
93781250.0,-63.16988
93791015.625,-63.245895
93800781.25,-63.306583
93810546.875,-63.320103
93820312.5,-63.35872
93830078.125,-63.377567
93839843.75,-63.41832
93849609.375,-63.46045
93859375.0,-63.50124
93869140.625,-63.570057
93878906.25,-63.68012
93888671.875,-63.64584
93898437.5,-63.72801
93908203.125,-63.814373
93917968.75,-63.733677
93927734.375,-63.730972
93937500.0,-63.719383
93947265.625,-63.73776
93957031.25,-63.749348
93966796.875,-63.855637
93976562.5,-63.86938
93986328.125,-62.205048
93996093.75,-61.90959
94005859.375,-62.42697
94015625.0,-62.68616
94025390.625,-63.39462
94035156.25,-63.84337
94044921.875,-64.079636
94054687.5,-64.14365
94064453.125,-64.298546
94074218.75,-64.47956
94083984.375,-64.50301
94093750.0,-64.53336
94103515.625,-64.40589
94113281.25,-64.2916
94123046.875,-64.456314
94132812.5,-64.44174
94142578.125,-64.42535
94152343.75,-64.48213
94162109.375,-64.53748
94171875.0,-64.56391
94181640.625,-64.56433
94191406.25,-64.58136
94201171.875,-64.59664
94210937.5,-64.53691
94220703.125,-64.5751
94230468.75,-64.55704
94240234.375,-64.49126
94250000.0,-64.50553
94259765.625,-64.60303
94269531.25,-64.58751
94279296.875,-64.543274
94289062.5,-64.6235
94298828.125,-64.71683
94308593.75,-64.77663
94318359.375,-64.75081
94328125.0,-64.81578
94337890.625,-64.90239
94347656.25,-64.96454
94357421.875,-65.09521
94367187.5,-65.176926
94376953.125,-65.186966
94386718.75,-65.273254
94396484.375,-65.422356
94406250.0,-65.50759
94416015.625,-65.59478
94425781.25,-65.59667
94435546.875,-65.69272
94445312.5,-65.8274
94455078.125,-65.856674
94464843.75,-65.966156
94474609.375,-66.07059
94484375.0,-66.0742
94494140.625,-66.01853
94503906.25,-66.06178
94513671.875,-66.110596
94523437.5,-66.135574
94533203.125,-66.1503
94542968.75,-66.1493
94552734.375,-66.05012
94562500.0,-66.06261
94572265.625,-65.99386
94582031.25,-65.94117
94591796.875,-65.94776
94601562.5,-65.88305
94611328.125,-65.7213
94621093.75,-65.62406
94630859.375,-65.582245
94640625.0,-65.530136
94650390.625,-65.53819
94660156.25,-65.41343
94669921.875,-65.25456
94679687.5,-65.234764
94689453.125,-65.16753
94699218.75,-64.977844
94708984.375,-64.92898
94718750.0,-64.84946
94728515.625,-64.72308
94738281.25,-64.67565
94748046.875,-64.64093
94757812.5,-64.59575
94767578.125,-64.578835
94777343.75,-64.534164
94787109.375,-64.45607
94796875.0,-64.399956
94806640.625,-64.39461
94816406.25,-64.36039
94826171.875,-64.35101
94835937.5,-64.354485
94845703.125,-64.302284
94855468.75,-64.27814
94865234.375,-64.25057
94875000.0,-64.20981
94884765.625,-64.22086
94894531.25,-64.28456
94904296.875,-64.315125
94914062.5,-64.2455
94923828.125,-64.23938
94933593.75,-64.302376
94943359.375,-64.36524
94953125.0,-64.30296
94962890.625,-64.25241
94972656.25,-64.24443
94982421.875,-64.28074
94992187.5,-64.19761
95001953.125,-64.09957
95011718.75,-64.203926
95021484.375,-64.157265
95031250.0,-64.18151
95041015.625,-64.20734
95050781.25,-64.16135
95060546.875,-64.12727
95070312.5,-64.148575
95080078.125,-64.121315
95089843.75,-64.10706
95099609.375,-64.11965
95109375.0,-64.08767
95119140.625,-64.06205
95128906.25,-64.03895
95138671.875,-64.027565
95148437.5,-64.07255
95158203.125,-64.131485
95167968.75,-64.11506
95177734.375,-64.08349
95187500.0,-64.0417
95197265.625,-64.060074
95207031.25,-64.13526
95216796.875,-64.149155
95226562.5,-64.15248
95236328.125,-64.15803
95246093.75,-64.22786
95255859.375,-64.321945
95265625.0,-64.36562
95275390.625,-64.41058
95285156.25,-64.42999
95294921.875,-64.48916
95304687.5,-64.643875
95314453.125,-64.712364
95324218.75,-64.736374
95333984.375,-64.80009
95343750.0,-64.8643
95353515.625,-64.96123
95363281.25,-65.10693
95373046.875,-65.2191
95382812.5,-65.29102
95392578.125,-65.44148
95402343.75,-65.44616
95412109.375,-65.46922
95421875.0,-65.54551
95431640.625,-65.57219
95441406.25,-65.683876
95451171.875,-65.70996
95460937.5,-65.64618
95470703.125,-65.64786
95480468.75,-65.62692
95490234.375,-65.66952
95500000.0,-65.67057
95509765.625,-65.60756
95519531.25,-65.49906
95529296.875,-65.37291
95539062.5,-65.305244
95548828.125,-65.23965
95558593.75,-65.09587
95568359.375,-65.03898
95578125.0,-64.9892
95587890.625,-64.88358
95597656.25,-64.76716
95607421.875,-64.67145
95617187.5,-64.58594
95626953.125,-64.44556
95636718.75,-64.28275
95646484.375,-64.162994
95656250.0,-64.101074
95666015.625,-64.039185
95675781.25,-63.966644
95685546.875,-63.90606
95695312.5,-63.839108
95705078.125,-63.790344
95714843.75,-63.716476
95724609.375,-63.662094
95734375.0,-63.582348
95744140.625,-63.55258
95753906.25,-63.564953
95763671.875,-63.591103
95773437.5,-63.550686
95783203.125,-63.52785
95792968.75,-63.505623
95802734.375,-63.527412
95812500.0,-63.5669
95822265.625,-63.60599
95832031.25,-63.66682
95841796.875,-63.72746
95851562.5,-63.570324
95861328.125,-63.542843
95871093.75,-63.633648
95880859.375,-63.72293
95890625.0,-63.679596
95900390.625,-63.664764
95910156.25,-63.698357
95919921.875,-63.730907
95929687.5,-63.655552
95939453.125,-63.456
95949218.75,-63.31635
95958984.375,-63.211395
95968750.0,-63.121445
95978515.625,-62.83104
95988281.25,-54.174686
95998046.875,-47.28943
96007812.5,-51.488567
96017578.125,-62.480057
96027343.75,-62.950512
96037109.375,-62.749348
96046875.0,-62.530857
96056640.625,-62.44145
96066406.25,-62.508755
96076171.875,-62.49638
96085937.5,-62.4422
96095703.125,-62.316696
96105468.75,-62.17957
96115234.375,-62.105263
96125000.0,-61.984257
96134765.625,-61.896667
96144531.25,-61.777565
96154296.875,-61.641502
96164062.5,-61.544186
96173828.125,-61.464752
96183593.75,-61.343
96193359.375,-61.259163
96203125.0,-61.149857
96212890.625,-61.04596
96222656.25,-60.984604
96232421.875,-60.89689
96242187.5,-60.85749
96251953.125,-60.83899
96261718.75,-60.78339
96271484.375,-60.709057
96281250.0,-60.69117
96291015.625,-60.705406
96300781.25,-60.717804
96310546.875,-60.71527
96320312.5,-60.74307
96330078.125,-60.76319
96339843.75,-60.82127
96349609.375,-60.944237
96359375.0,-61.01822
96369140.625,-61.0739
96378906.25,-61.105125
96388671.875,-61.138443
96398437.5,-61.256386
96408203.125,-61.370506
96417968.75,-61.491592
96427734.375,-61.633156
96437500.0,-61.753487
96447265.625,-61.869617
96457031.25,-61.98935
96466796.875,-62.13879
96476562.5,-62.315582
96486328.125,-62.42905
96496093.75,-62.583054
96505859.375,-62.75841
96515625.0,-62.900204
96525390.625,-62.985615
96535156.25,-63.13173
96544921.875,-63.305405
96554687.5,-63.387585
96564453.125,-63.460102
96574218.75,-63.568764
96583984.375,-63.645653
96593750.0,-63.666664
96603515.625,-63.70732
96613281.25,-63.76625
96623046.875,-63.805786
96632812.5,-63.824837
96642578.125,-63.80114
96652343.75,-63.740875
96662109.375,-63.71416
96671875.0,-63.711845
96681640.625,-63.67487
96691406.25,-63.550903
96701171.875,-63.46537
96710937.5,-63.469204
96720703.125,-63.38877
96730468.75,-63.253723
96740234.375,-63.141056
96750000.0,-63.09877
96759765.625,-63.050636
96769531.25,-62.991623
96779296.875,-62.91201
96789062.5,-62.831097
96798828.125,-62.82295
96808593.75,-62.798172
96818359.375,-62.744442
96828125.0,-62.72179
96837890.625,-62.71387
96847656.25,-62.667282
96857421.875,-62.66001
96867187.5,-62.65773
96876953.125,-62.61798
96886718.75,-62.61525
96896484.375,-62.653625
96906250.0,-62.657852
96916015.625,-62.634483
96925781.25,-62.715256
96935546.875,-62.77384
96945312.5,-62.779945
96955078.125,-62.791565
96964843.75,-62.821903
96974609.375,-62.86445
96984375.0,-62.892914
96994140.625,-62.85729
97003906.25,-62.832943
97013671.875,-62.84283
97023437.5,-62.87612
97033203.125,-62.868458
97042968.75,-62.831097
97052734.375,-62.841003
97062500.0,-62.816204
97072265.625,-62.711464
97082031.25,-62.657745
97091796.875,-62.62229
97101562.5,-62.554413
97111328.125,-62.468983
97121093.75,-62.4033
97130859.375,-62.305202
97140625.0,-62.21502
97150390.625,-62.12928
97160156.25,-61.996155
97169921.875,-61.896862
97179687.5,-61.81751
97189453.125,-61.704376
97199218.75,-61.60816
97208984.375,-61.499832
97218750.0,-61.408924
97228515.625,-61.30032
97238281.25,-61.20752
97248046.875,-61.103188
97257812.5,-61.025967
97267578.125,-60.978718
97277343.75,-60.89608
97287109.375,-60.81153
97296875.0,-60.781803
97306640.625,-60.736347
97316406.25,-60.710777
97326171.875,-60.66514
97335937.5,-60.64537
97345703.125,-60.641705
97355468.75,-60.63526
97365234.375,-60.60362
97375000.0,-60.57148
97384765.625,-60.55625
97394531.25,-60.563885
97404296.875,-60.567932
97414062.5,-60.555058
97423828.125,-60.55764
97433593.75,-60.580143
97443359.375,-60.586174
97453125.0,-60.579372
97462890.625,-60.616646
97472656.25,-60.69887
97482421.875,-60.743896
97492187.5,-60.754112
97501953.125,-60.772377
97511718.75,-60.770855
97521484.375,-60.755974
97531250.0,-60.776447
97541015.625,-60.808582
97550781.25,-60.82298
97560546.875,-60.822796
97570312.5,-60.84467
97580078.125,-60.851982
97589843.75,-60.847706
97599609.375,-60.851944
97609375.0,-60.83049
97619140.625,-60.79945
97628906.25,-60.735123
97638671.875,-60.726925
97648437.5,-60.70995
97658203.125,-60.643196
97667968.75,-60.63557
97677734.375,-60.663815
97687500.0,-60.61557
97697265.625,-60.589565
97707031.25,-60.55224
97716796.875,-60.511837
97726562.5,-60.474617
97736328.125,-60.433445
97746093.75,-60.389725
97755859.375,-60.375656
97765625.0,-60.39138
97775390.625,-60.41788
97785156.25,-60.426025
97794921.875,-60.43309
97804687.5,-60.420273
97814453.125,-60.3669
97824218.75,-60.38395
97833984.375,-60.437588
97843750.0,-60.43795
97853515.625,-60.450382
97863281.25,-60.488964
97873046.875,-60.490795
97882812.5,-60.48727
97892578.125,-60.536324
97902343.75,-60.59858
97912109.375,-60.63237
97921875.0,-60.618256
97931640.625,-60.628147
97941406.25,-60.582184
97951171.875,-60.559464
97960937.5,-60.58084
97970703.125,-60.528202
97980468.75,-60.17261
97990234.375,-60.809002
98000000.0,-62.87298
98009765.625,-60.90736
98019531.25,-60.26241
98029296.875,-60.533024
98039062.5,-60.63644
98048828.125,-60.63084
98058593.75,-60.591717
98068359.375,-60.6138
98078125.0,-60.61075
98087890.625,-60.536514
98097656.25,-60.451912
98107421.875,-60.35594
98117187.5,-60.23583
98126953.125,-60.12119
98136718.75,-60.038902
98146484.375,-59.935184
98156250.0,-59.872276
98166015.625,-59.787025
98175781.25,-59.641228
98185546.875,-59.496643
98195312.5,-59.338524
98205078.125,-59.19745
98214843.75,-59.091118
98224609.375,-58.977234
98234375.0,-58.838463
98244140.625,-58.73485
98253906.25,-58.641754
98263671.875,-58.53195
98273437.5,-58.44192
98283203.125,-58.34164
98292968.75,-58.220787
98302734.375,-58.113266
98312500.0,-58.027077
98322265.625,-57.953995
98332031.25,-57.868446
98341796.875,-57.77405
98351562.5,-57.697796
98361328.125,-57.644295
98371093.75,-57.560463
98380859.375,-57.47541
98390625.0,-57.411198
98400390.625,-57.333626
98410156.25,-57.258472
98419921.875,-57.177063
98429687.5,-57.08216
98439453.125,-56.995453
98449218.75,-56.90044
98458984.375,-56.816597
98468750.0,-56.703148
98478515.625,-56.573826
98488281.25,-56.44557
98498046.875,-56.32174
98507812.5,-56.212013
98517578.125,-56.087395
98527343.75,-55.9408
98537109.375,-55.76883
98546875.0,-55.598557
98556640.625,-55.449013
98566406.25,-55.29294
98576171.875,-55.14264
98585937.5,-54.99403
98595703.125,-54.839066
98605468.75,-54.663223
98615234.375,-54.487816
98625000.0,-54.321426
98634765.625,-54.168045
98644531.25,-54.01397
98654296.875,-53.85401
98664062.5,-53.70272
98673828.125,-53.54963
98683593.75,-53.40286
98693359.375,-53.249874
98703125.0,-53.080845
98712890.625,-52.92855
98722656.25,-52.812595
98732421.875,-52.71059
98742187.5,-52.608242
98751953.125,-52.48552
98761718.75,-52.381622
98771484.375,-52.298046
98781250.0,-52.21638
98791015.625,-52.12754
98800781.25,-52.04851
98810546.875,-51.984573
98820312.5,-51.92125
98830078.125,-51.87015
98839843.75,-51.834087
98849609.375,-51.81284
98859375.0,-51.784935
98869140.625,-51.76365
98878906.25,-51.774296
98888671.875,-51.791267
98898437.5,-51.801857
98908203.125,-51.82179
98917968.75,-51.85753
98927734.375,-51.89549
98937500.0,-51.938545
98947265.625,-51.995552
98957031.25,-52.05768
98966796.875,-52.12249
98976562.5,-52.20851
98986328.125,-52.316208
98996093.75,-52.41428
99005859.375,-52.514034
99015625.0,-52.6317
99025390.625,-52.75968
99035156.25,-52.902412
99044921.875,-53.05593
99054687.5,-53.222404
99064453.125,-53.381073
99074218.75,-53.535786
99083984.375,-53.71296
99093750.0,-53.92495
99103515.625,-54.125027
99113281.25,-54.30666
99123046.875,-54.526024
99132812.5,-54.77371
99142578.125,-55.02102
99152343.75,-55.254852
99162109.375,-55.47902
99171875.0,-55.73265
99181640.625,-55.999214
99191406.25,-56.252853
99201171.875,-56.54113
99210937.5,-56.818687
99220703.125,-57.072
99230468.75,-57.30545
99240234.375,-57.56108
99250000.0,-57.796913
99259765.625,-58.003582
99269531.25,-58.201595
99279296.875,-58.35728
99289062.5,-58.43573
99298828.125,-58.459087
99308593.75,-58.50491
99318359.375,-58.561142
99328125.0,-58.539543
99337890.625,-58.446587
99347656.25,-58.33876
99357421.875,-58.236183
99367187.5,-58.12477
99376953.125,-57.981956
99386718.75,-57.864853
99396484.375,-57.72696
99406250.0,-57.568966
99416015.625,-57.372974
99425781.25,-57.18344
99435546.875,-57.023052
99445312.5,-56.8211
99455078.125,-56.597866
99464843.75,-56.379246
99474609.375,-56.175518
99484375.0,-55.938457
99494140.625,-55.653023
99503906.25,-55.39448
99513671.875,-55.162148
99523437.5,-54.901157
99533203.125,-54.63293
99542968.75,-54.371536
99552734.375,-54.15332
99562500.0,-53.915092
99572265.625,-53.669136
99582031.25,-53.43949
99591796.875,-53.222107
99601562.5,-52.99485
99611328.125,-52.749096
99621093.75,-52.525803
99630859.375,-52.297523
99640625.0,-52.051468
99650390.625,-51.81393
99660156.25,-51.541027
99669921.875,-51.29063
99679687.5,-51.15296
99689453.125,-50.94915
99699218.75,-50.707138
99708984.375,-50.485516
99718750.0,-50.311466
99728515.625,-50.133224
99738281.25,-49.940704
99748046.875,-49.744965
99757812.5,-49.557693
99767578.125,-49.378525
99777343.75,-49.214687
99787109.375,-49.00679
99796875.0,-48.543053
99806640.625,-48.204456
99816406.25,-48.33904
99826171.875,-48.23834
99835937.5,-47.95777
99845703.125,-47.721268
99855468.75,-47.57421
99865234.375,-47.316505
99875000.0,-47.050114
99884765.625,-46.690674
99894531.25,-43.740837
99904296.875,-40.454056
99914062.5,-41.882324
99923828.125,-41.443897
99933593.75,-39.05948
99943359.375,-37.225246
99953125.0,-36.633255
99962890.625,-37.5767
99972656.25,-39.934826
99982421.875,-37.654125
99992187.5,-10.487304
100001953.125,-5.9174576
100011718.75,-13.515643
100021484.375,-38.16545
100031250.0,-39.156525
100041015.625,-37.185127
100050781.25,-36.812927
100060546.875,-37.782387
100070312.5,-39.922318
100080078.125,-42.13643
100089843.75,-41.41937
100099609.375,-40.566715
100109375.0,-44.70401
100119140.625,-46.926796
100128906.25,-47.292236
100138671.875,-47.477688
100148437.5,-47.70035
100158203.125,-47.835358
100167968.75,-47.969227
100177734.375,-48.156567
100187500.0,-48.318695
100197265.625,-48.343616
100207031.25,-48.694553
100216796.875,-49.031864
100226562.5,-49.231346
100236328.125,-49.41034
100246093.75,-49.593475
100255859.375,-49.777847
100265625.0,-49.94403
100275390.625,-50.149498
100285156.25,-50.3684
100294921.875,-50.574104
100304687.5,-50.762283
100314453.125,-50.989304
100324218.75,-51.221985
100333984.375,-51.393047
100343750.0,-51.66826
100353515.625,-51.902905
100363281.25,-52.106125
100373046.875,-52.32567
100382812.5,-52.564663
100392578.125,-52.805077
100402343.75,-53.0364
100412109.375,-53.299683
100421875.0,-53.563404
100431640.625,-53.808254
100441406.25,-54.04745
100451171.875,-54.29317
100460937.5,-54.54403
100470703.125,-54.7842
100480468.75,-55.034767
100490234.375,-55.283047
100500000.0,-55.531498
100509765.625,-55.806816
100519531.25,-56.053307
100529296.875,-56.266304
100539062.5,-56.4989
100548828.125,-56.765892
100558593.75,-56.997242
100568359.375,-57.175644
100578125.0,-57.38823
100587890.625,-57.62348
100597656.25,-57.844406
100607421.875,-58.03074
100617187.5,-58.197403
100626953.125,-58.339138
100636718.75,-58.439693
100646484.375,-58.53464
100656250.0,-58.613983
100666015.625,-58.679855
100675781.25,-58.68145
100685546.875,-58.66123
100695312.5,-58.623356
100705078.125,-58.5688
100714843.75,-58.46392
100724609.375,-58.33904
100734375.0,-58.203285
100744140.625,-58.04228
100753906.25,-57.839226
100763671.875,-57.607964
100773437.5,-57.390373
100783203.125,-57.168655
100792968.75,-56.90854
100802734.375,-56.644703
100812500.0,-56.406662
100822265.625,-56.1653
100832031.25,-55.901054
100841796.875,-55.646366
100851562.5,-55.403885
100861328.125,-55.169212
100871093.75,-54.92946
100880859.375,-54.7091
100890625.0,-54.484745
100900390.625,-54.260323
100910156.25,-54.041687
100919921.875,-53.845413
100929687.5,-53.643494
100939453.125,-53.449684
100949218.75,-53.280315
100958984.375,-53.116905
100968750.0,-52.961754
100978515.625,-52.80098
100988281.25,-52.650368
100998046.875,-52.538254
101007812.5,-52.441235
101017578.125,-52.328335
101027343.75,-52.227226
101037109.375,-52.14702
101046875.0,-52.06291
101056640.625,-51.979424
101066406.25,-51.91565
101076171.875,-51.870346
101085937.5,-51.829094
101095703.125,-51.80314
101105468.75,-51.7804
101115234.375,-51.765587
101125000.0,-51.768723
101134765.625,-51.786304
101144531.25,-51.81153
101154296.875,-51.834087
101164062.5,-51.857086
101173828.125,-51.889084
101183593.75,-51.92472
101193359.375,-51.98267
101203125.0,-52.049885
101212890.625,-52.123127
101222656.25,-52.20223
101232421.875,-52.298767
101242187.5,-52.40602
101251953.125,-52.518364
101261718.75,-52.63137
101271484.375,-52.736225
101281250.0,-52.857075
101291015.625,-52.989098
101300781.25,-53.123215
101310546.875,-53.254387
101320312.5,-53.39108
101330078.125,-53.551594
101339843.75,-53.71238
101349609.375,-53.8599
101359375.0,-54.016453
101369140.625,-54.191765
101378906.25,-54.35909
101388671.875,-54.515915
101398437.5,-54.686707
101408203.125,-54.84485
101417968.75,-54.995846
101427734.375,-55.15797
101437500.0,-55.31894
101447265.625,-55.48915
101457031.25,-55.652626
101466796.875,-55.78019
101476562.5,-55.8946
101486328.125,-56.0226
101496093.75,-56.182533
101505859.375,-56.33472
101515625.0,-56.44874
101525390.625,-56.55629
101535156.25,-56.676403
101544921.875,-56.7871
101554687.5,-56.877445
101564453.125,-56.97864
101574218.75,-57.049706
101583984.375,-57.13274
101593750.0,-57.242416
101603515.625,-57.30558
101613281.25,-57.371758
101623046.875,-57.443462
101632812.5,-57.525696
101642578.125,-57.606407
101652343.75,-57.685123
101662109.375,-57.756058
101671875.0,-57.80358
101681640.625,-57.877712
101691406.25,-57.99933
101701171.875,-58.078873
101710937.5,-58.167843
101720703.125,-58.2703
101730468.75,-58.361374
101740234.375,-58.437378
101750000.0,-58.53819
101759765.625,-58.66163
101769531.25,-58.763283
101779296.875,-58.865173
101789062.5,-59.024147
101798828.125,-59.144917
101808593.75,-59.19854
101818359.375,-59.289177
101828125.0,-59.417133
101837890.625,-59.55721
101847656.25,-59.638443
101857421.875,-59.67228
101867187.5,-59.756462
101876953.125,-59.864502
101886718.75,-60.010803
101896484.375,-60.1207
101906250.0,-60.2149
101916015.625,-60.30519
101925781.25,-60.335506
101935546.875,-60.266426
101945312.5,-60.279846
101955078.125,-60.264202
101964843.75,-60.243984
101974609.375,-60.12495
101984375.0,-59.854584
101994140.625,-59.348568
102003906.25,-59.220734
102013671.875,-59.742706
102023437.5,-60.392082
102033203.125,-60.305103
102042968.75,-60.324825
102052734.375,-60.252953
102062500.0,-60.228848
102072265.625,-60.30407
102082031.25,-60.32518
102091796.875,-60.3338
102101562.5,-60.27649
102111328.125,-60.213127
102121093.75,-60.215233
102130859.375,-60.15757
102140625.0,-60.09981
102150390.625,-60.128345
102160156.25,-60.16098
102169921.875,-60.1926
102179687.5,-60.182896
102189453.125,-60.17027
102199218.75,-60.19387
102208984.375,-60.213913
102218750.0,-60.21681
102228515.625,-60.248276
102238281.25,-60.24086
102248046.875,-60.26761
102257812.5,-60.272026
102267578.125,-60.316658
102277343.75,-60.349762
102287109.375,-60.345917
102296875.0,-60.34521
102306640.625,-60.35453
102316406.25,-60.39934
102326171.875,-60.441124
102335937.5,-60.48162
102345703.125,-60.501396
102355468.75,-60.533634
102365234.375,-60.567226
102375000.0,-60.60905
102384765.625,-60.64614
102394531.25,-60.653313
102404296.875,-60.64758
102414062.5,-60.61382
102423828.125,-60.605476
102433593.75,-60.623734
102443359.375,-60.660038
102453125.0,-60.679756
102462890.625,-60.66236
102472656.25,-60.632706
102482421.875,-60.614197
102492187.5,-60.619736
102501953.125,-60.63395
102511718.75,-60.59639
102521484.375,-60.574184
102531250.0,-60.581875
102541015.625,-60.55957
102550781.25,-60.538517
102560546.875,-60.496334
102570312.5,-60.50569
102580078.125,-60.49645
102589843.75,-60.49784
102599609.375,-60.486916
102609375.0,-60.481777
102619140.625,-60.476345
102628906.25,-60.500694
102638671.875,-60.499798
102648437.5,-60.501762
102658203.125,-60.50834
102667968.75,-60.544437
102677734.375,-60.595924
102687500.0,-60.608566
102697265.625,-60.700493
102707031.25,-60.803967
102716796.875,-60.842243
102726562.5,-60.87763
102736328.125,-60.925785
102746093.75,-61.0012
102755859.375,-61.12168
102765625.0,-61.220203
102775390.625,-61.29756
102785156.25,-61.431587
102794921.875,-61.532955
102804687.5,-61.618748
102814453.125,-61.680798
102824218.75,-61.765858
102833984.375,-61.906326
102843750.0,-62.04328
102853515.625,-62.126347
102863281.25,-62.1872
102873046.875,-62.22914
102882812.5,-62.3427
102892578.125,-62.470325
102902343.75,-62.51486
102912109.375,-62.54991
102921875.0,-62.607567
102931640.625,-62.714466
102941406.25,-62.773422
102951171.875,-62.79501
102960937.5,-62.81037
102970703.125,-62.806038
102980468.75,-62.795547
102990234.375,-62.817616
103000000.0,-62.86345
103009765.625,-62.891254
103019531.25,-62.855522
103029296.875,-62.868362
103039062.5,-62.8372
103048828.125,-62.816383
103058593.75,-62.749104
103068359.375,-62.705338
103078125.0,-62.716183
103087890.625,-62.66806
103097656.25,-62.641987
103107421.875,-62.62017
103117187.5,-62.600418
103126953.125,-62.61768
103136718.75,-62.62583
103146484.375,-62.62262
103156250.0,-62.629135
103166015.625,-62.67816
103175781.25,-62.755795
103185546.875,-62.761883
103195312.5,-62.7465
103205078.125,-62.829266
103214843.75,-62.910786
103224609.375,-62.973522
103234375.0,-63.000416
103244140.625,-63.049446
103253906.25,-63.142227
103263671.875,-63.20368
103273437.5,-63.28946
103283203.125,-63.3861
103292968.75,-63.39909
103302734.375,-63.460434
103312500.0,-63.6007
103322265.625,-63.65749
103332031.25,-63.643456
103341796.875,-63.723354
103351562.5,-63.78293
103361328.125,-63.803207
103371093.75,-63.765182
103380859.375,-63.803257
103390625.0,-63.828613
103400390.625,-63.778313
103410156.25,-63.71935
103419921.875,-63.637466
103429687.5,-63.51847
103439453.125,-63.44644
103449218.75,-63.37969
103458984.375,-63.24312
103468750.0,-63.099823
103478515.625,-62.970825
103488281.25,-62.792526
103498046.875,-62.673985
103507812.5,-62.554634
103517578.125,-62.470924
103527343.75,-62.334766
103537109.375,-62.14897
103546875.0,-61.97155
103556640.625,-61.8118
103566406.25,-61.66264
103576171.875,-61.531708
103585937.5,-61.43242
103595703.125,-61.378063
103605468.75,-61.311455
103615234.375,-61.175465
103625000.0,-61.02358
103634765.625,-60.95199
103644531.25,-60.935715
103654296.875,-60.879063
103664062.5,-60.810585
103673828.125,-60.766434
103683593.75,-60.743656
103693359.375,-60.732037
103703125.0,-60.742455
103712890.625,-60.72739
103722656.25,-60.68358
103732421.875,-60.675777
103742187.5,-60.683235
103751953.125,-60.73118
103761718.75,-60.804363
103771484.375,-60.870216
103781250.0,-60.95781
103791015.625,-61.04725
103800781.25,-61.133667
103810546.875,-61.21387
103820312.5,-61.283756
103830078.125,-61.401573
103839843.75,-61.529823
103849609.375,-61.613632
103859375.0,-61.657406
103869140.625,-61.810463
103878906.25,-62.010216
103888671.875,-62.147743
103898437.5,-62.250748
103908203.125,-62.350334
103917968.75,-62.34307
103927734.375,-62.323536
103937500.0,-62.476963
103947265.625,-62.59138
103957031.25,-62.67341
103966796.875,-62.874683
103976562.5,-63.088272
103986328.125,-62.03595
103996093.75,-60.597824
104005859.375,-61.564026
104015625.0,-62.315334
104025390.625,-62.814644
104035156.25,-63.14688
104044921.875,-63.413673
104054687.5,-63.34143
104064453.125,-63.3916
104074218.75,-63.642612
104083984.375,-63.74842
104093750.0,-63.703033
104103515.625,-63.608
104113281.25,-63.6023
104123046.875,-63.560722
104132812.5,-63.494076
104142578.125,-63.56359
104152343.75,-63.644253
104162109.375,-63.633118
104171875.0,-63.539864
104181640.625,-63.441826
104191406.25,-63.50136
104201171.875,-63.5531
104210937.5,-63.482452
104220703.125,-63.45362
104230468.75,-63.443626
104240234.375,-63.43759
104250000.0,-63.46969
104259765.625,-63.548656
104269531.25,-63.63053
104279296.875,-63.66444
104289062.5,-63.721786
104298828.125,-63.726196
104308593.75,-63.817287
104318359.375,-63.944035
104328125.0,-63.943565
104337890.625,-64.023026
104347656.25,-64.14769
104357421.875,-64.29843
104367187.5,-64.40999
104376953.125,-64.50339
104386718.75,-64.546326
104396484.375,-64.65205
104406250.0,-64.782196
104416015.625,-64.945564
104425781.25,-65.07832
104435546.875,-65.14537
104445312.5,-65.24375
104455078.125,-65.31976
104464843.75,-65.38736
104474609.375,-65.45276
104484375.0,-65.484055
104494140.625,-65.50629
104503906.25,-65.559715
104513671.875,-65.58915
104523437.5,-65.675064
104533203.125,-65.77439
104542968.75,-65.78114
104552734.375,-65.74541
104562500.0,-65.64098
104572265.625,-65.616905
104582031.25,-65.57123
104591796.875,-65.48236
104601562.5,-65.47065
104611328.125,-65.35949
104621093.75,-65.26921
104630859.375,-65.193756
104640625.0,-65.08174
104650390.625,-64.98348
104660156.25,-64.87313
104669921.875,-64.72775
104679687.5,-64.66304
104689453.125,-64.6327
104699218.75,-64.580986
104708984.375,-64.52742
104718750.0,-64.44844
104728515.625,-64.36248
104738281.25,-64.31842
104748046.875,-64.273384
104757812.5,-64.228485
104767578.125,-64.2034
104777343.75,-64.18489
104787109.375,-64.12343
104796875.0,-64.08152
104806640.625,-64.02645
104816406.25,-64.00241
104826171.875,-64.0199
104835937.5,-64.01032
104845703.125,-64.08305
104855468.75,-64.118034
104865234.375,-64.081375
104875000.0,-64.043365
104884765.625,-64.04463
104894531.25,-64.06036
104904296.875,-64.15271
104914062.5,-64.172844
104923828.125,-64.13949
104933593.75,-64.129326
104943359.375,-64.154594
104953125.0,-64.14931
104962890.625,-64.1634
104972656.25,-64.20755
104982421.875,-64.166954
104992187.5,-64.00801
105001953.125,-63.880577
105011718.75,-64.1199
105021484.375,-64.212746
105031250.0,-64.25522
105041015.625,-64.30531
105050781.25,-64.22037
105060546.875,-64.203384
105070312.5,-64.18155
105080078.125,-64.22618
105089843.75,-64.24304
105099609.375,-64.20844
105109375.0,-64.22105
105119140.625,-64.259575
105128906.25,-64.23956
105138671.875,-64.22072
105148437.5,-64.2198
105158203.125,-64.28213
105167968.75,-64.29308
105177734.375,-64.24829
105187500.0,-64.291115
105197265.625,-64.32931
105207031.25,-64.35208
105216796.875,-64.4149
105226562.5,-64.45634
105236328.125,-64.484825
105246093.75,-64.56831
105255859.375,-64.58162
105265625.0,-64.67767
105275390.625,-64.73732
105285156.25,-64.74217
105294921.875,-64.81679
105304687.5,-64.946396
105314453.125,-65.07036
105324218.75,-65.09371
105333984.375,-65.19649
105343750.0,-65.21162
105353515.625,-65.2574
105363281.25,-65.40174
105373046.875,-65.528854
105382812.5,-65.58489
105392578.125,-65.633766
105402343.75,-65.68318
105412109.375,-65.738556
105421875.0,-65.77864
105431640.625,-65.870445
105441406.25,-65.877396
105451171.875,-65.87215
105460937.5,-65.96938
105470703.125,-65.917854
105480468.75,-65.96911
105490234.375,-65.96463
105500000.0,-65.91411
105509765.625,-65.888885
105519531.25,-65.747536
105529296.875,-65.71865
105539062.5,-65.737305
105548828.125,-65.675705
105558593.75,-65.59229
105568359.375,-65.513084
105578125.0,-65.486
105587890.625,-65.383804
105597656.25,-65.26811
105607421.875,-65.174416
105617187.5,-65.04109
105626953.125,-64.98056
105636718.75,-64.879684
105646484.375,-64.83468
105656250.0,-64.8384
105666015.625,-64.7413
105675781.25,-64.6586
105685546.875,-64.587776
105695312.5,-64.5721
105705078.125,-64.474976
105714843.75,-64.416466
105724609.375,-64.41371
105734375.0,-64.38796
105744140.625,-64.26956
105753906.25,-64.2529
105763671.875,-64.29778
105773437.5,-64.2861
105783203.125,-64.32777
105792968.75,-64.28017
105802734.375,-64.2598
105812500.0,-64.32239
105822265.625,-64.36818
105832031.25,-64.33663
105841796.875,-64.274376
105851562.5,-64.22391
105861328.125,-64.06966
105871093.75,-63.98876
105880859.375,-64.01656
105890625.0,-63.970295
105900390.625,-64.09273
105910156.25,-64.10623
105919921.875,-64.07724
105929687.5,-63.946487
105939453.125,-63.81981
105949218.75,-63.660873
105958984.375,-63.536858
105968750.0,-63.19805
105978515.625,-62.758736
105988281.25,-61.890915
105998046.875,-61.693363
106007812.5,-61.109844
106017578.125,-62.09644
106027343.75,-63.13646
106037109.375,-63.33637
106046875.0,-63.42861
106056640.625,-63.39857
106066406.25,-63.29258
106076171.875,-63.347107
106085937.5,-63.509426
106095703.125,-63.452614
106105468.75,-63.278637
106115234.375,-63.299362
106125000.0,-63.28066
106134765.625,-63.20546
106144531.25,-63.17835
106154296.875,-63.194046
106164062.5,-63.22834
106173828.125,-63.172096
106183593.75,-63.142693
106193359.375,-63.129707
106203125.0,-63.123466
106212890.625,-63.06246
106222656.25,-62.99746
106232421.875,-62.95334
106242187.5,-62.92913
106251953.125,-62.95834
106261718.75,-63.04438
106271484.375,-63.009224
106281250.0,-62.99595
106291015.625,-63.047085
106300781.25,-63.10186
106310546.875,-63.14805
106320312.5,-63.16571
106330078.125,-63.213554
106339843.75,-63.226692
106349609.375,-63.24263
106359375.0,-63.342445
106369140.625,-63.466103
106378906.25,-63.606705
106388671.875,-63.660294
106398437.5,-63.736534
106408203.125,-63.84542
106417968.75,-63.920475
106427734.375,-63.992867
106437500.0,-64.15649
106447265.625,-64.327614
106457031.25,-64.40095
106466796.875,-64.50185
106476562.5,-64.639984
106486328.125,-64.69058
106496093.75,-64.8577
106505859.375,-64.95716
106515625.0,-65.045906
106525390.625,-65.20379
106535156.25,-65.31766
106544921.875,-65.38295
106554687.5,-65.47837
106564453.125,-65.561806
106574218.75,-65.665985
106583984.375,-65.774254
106593750.0,-65.78057
106603515.625,-65.78938
106613281.25,-65.823654
106623046.875,-65.848434
106632812.5,-65.8833
106642578.125,-65.93402
106652343.75,-65.893234
106662109.375,-65.81741
106671875.0,-65.83726
106681640.625,-65.79672
106691406.25,-65.75315
106701171.875,-65.700485
106710937.5,-65.77943
106720703.125,-65.84308
106730468.75,-65.78125
106740234.375,-65.70152
106750000.0,-65.70851
106759765.625,-65.64128
106769531.25,-65.60599
106779296.875,-65.62358
106789062.5,-65.570724
106798828.125,-65.53048
106808593.75,-65.51646
106818359.375,-65.52721
106828125.0,-65.529945
106837890.625,-65.54269
106847656.25,-65.53368
106857421.875,-65.48808
106867187.5,-65.535995
106876953.125,-65.55053
106886718.75,-65.601395
106896484.375,-65.61383
106906250.0,-65.62532
106916015.625,-65.69516
106925781.25,-65.68522
106935546.875,-65.66132
106945312.5,-65.70939
106955078.125,-65.77086
106964843.75,-65.78533
106974609.375,-65.874664
106984375.0,-65.870445
106994140.625,-65.85465
107003906.25,-65.87055
107013671.875,-65.867065
107023437.5,-65.85655
107033203.125,-65.84645
107042968.75,-65.869965
107052734.375,-65.89322
107062500.0,-65.87288
107072265.625,-65.81423
107082031.25,-65.80518
107091796.875,-65.80164
107101562.5,-65.717804
107111328.125,-65.74218
107121093.75,-65.73648
107130859.375,-65.681366
107140625.0,-65.663284
107150390.625,-65.61895
107160156.25,-65.56052
107169921.875,-65.559326
107179687.5,-65.545685
107189453.125,-65.454094
107199218.75,-65.35504
107208984.375,-65.32668
107218750.0,-65.42724
107228515.625,-65.4136
107238281.25,-65.26866
107248046.875,-65.260864
107257812.5,-65.174995
107267578.125,-65.08964
107277343.75,-65.07838
107287109.375,-65.08472
107296875.0,-65.06071
107306640.625,-64.95467
107316406.25,-64.9701
107326171.875,-65.01288
107335937.5,-64.9892
107345703.125,-65.02221
107355468.75,-65.05557
107365234.375,-65.02015
107375000.0,-65.02585
107384765.625,-65.06471
107394531.25,-65.04739
107404296.875,-64.98282
107414062.5,-64.96009
107423828.125,-64.99619
107433593.75,-65.08562
107443359.375,-65.123375
107453125.0,-65.13661
107462890.625,-65.14531
107472656.25,-65.11003
107482421.875,-65.04523
107492187.5,-65.08815
107501953.125,-65.13478
107511718.75,-65.15018
107521484.375,-65.12061
107531250.0,-65.12689
107541015.625,-65.110535
107550781.25,-65.10325
107560546.875,-65.15676
107570312.5,-65.16891
107580078.125,-65.16061
107589843.75,-65.14685
107599609.375,-65.12912
107609375.0,-65.12781
107619140.625,-65.08437
107628906.25,-65.108765
107638671.875,-65.05369
107648437.5,-65.029305
107658203.125,-64.99923
107667968.75,-65.02527
107677734.375,-64.99146
107687500.0,-64.9504
107697265.625,-64.954956
107707031.25,-64.97308
107716796.875,-64.97168
107726562.5,-64.92433
107736328.125,-64.88168
107746093.75,-64.773056
107755859.375,-64.683426
107765625.0,-64.70976
107775390.625,-64.70071
107785156.25,-64.65996
107794921.875,-64.690796
107804687.5,-64.66322
107814453.125,-64.67834
107824218.75,-64.673775
107833984.375,-64.609535
107843750.0,-64.6355
107853515.625,-64.548836
107863281.25,-64.49205
107873046.875,-64.49834
107882812.5,-64.54858
107892578.125,-64.54722
107902343.75,-64.46928
107912109.375,-64.3707
107921875.0,-64.31697
107931640.625,-64.210915
107941406.25,-64.053535
107951171.875,-64.14418
107960937.5,-64.11478
107970703.125,-64.106186
107980468.75,-64.263176
107990234.375,-62.6454
