Frequency (Hz),PSD (dBm)
98000000.0,-71.984604
98009765.625,-71.983955
98019531.25,-72.01311
98029296.875,-72.08601
98039062.5,-72.084816
98048828.125,-72.05245
98058593.75,-72.03055
98068359.375,-72.03952
98078125.0,-72.09443
98087890.625,-72.081856
98097656.25,-72.01979
98107421.875,-72.02022
98117187.5,-72.06021
98126953.125,-72.016785
98136718.75,-71.98853
98146484.375,-72.01254
98156250.0,-72.00473
98166015.625,-72.03057
98175781.25,-72.03204
98185546.875,-72.04676
98195312.5,-72.08282
98205078.125,-72.085045
98214843.75,-72.06289
98224609.375,-72.066055
98234375.0,-72.00604
98244140.625,-72.005104
98253906.25,-72.05856
98263671.875,-72.06309
98273437.5,-72.038376
98283203.125,-72.024536
98292968.75,-72.037834
98302734.375,-72.07349
98312500.0,-72.0502
98322265.625,-72.08685
98332031.25,-72.07358
98341796.875,-72.061775
98351562.5,-72.06544
98361328.125,-72.06761
98371093.75,-72.10472
98380859.375,-72.10394
98390625.0,-72.09449
98400390.625,-72.09908
98410156.25,-72.0676
98419921.875,-72.060524
98429687.5,-72.112434
98439453.125,-72.08368
98449218.75,-72.08414
98458984.375,-72.1179
98468750.0,-72.10492
98478515.625,-72.07231
98488281.25,-72.09528
98498046.875,-72.09649
98507812.5,-72.11493
98517578.125,-72.10446
98527343.75,-72.04564
98537109.375,-72.04066
98546875.0,-72.038284
98556640.625,-72.01079
98566406.25,-72.004745
98576171.875,-72.039825
98585937.5,-72.073524
98595703.125,-72.080376
98605468.75,-72.07484
98615234.375,-72.05285
98625000.0,-72.06908
98634765.625,-72.06074
98644531.25,-72.10882
98654296.875,-72.10372
98664062.5,-72.12132
98673828.125,-72.12202
98683593.75,-72.046234
98693359.375,-72.01671
98703125.0,-72.03007
98712890.625,-72.06284
98722656.25,-72.133705
98732421.875,-72.11592
98742187.5,-72.067276
98751953.125,-72.072266
98761718.75,-72.094345
98771484.375,-72.14387
98781250.0,-72.11267
98791015.625,-72.00151
98800781.25,-72.04402
98810546.875,-72.09462
98820312.5,-72.04428
98830078.125,-72.014534
98839843.75,-72.05802
98849609.375,-72.07606
98859375.0,-72.10311
98869140.625,-72.07319
98878906.25,-72.061935
98888671.875,-72.07592
98898437.5,-72.07557
98908203.125,-72.118
98917968.75,-72.07723
98927734.375,-72.03145
98937500.0,-72.05923
98947265.625,-72.04464
98957031.25,-72.10828
98966796.875,-72.07563
98976562.5,-72.059906
98986328.125,-72.04129
98996093.75,-72.04352
99005859.375,-72.05375
99015625.0,-72.05735
99025390.625,-72.035774
99035156.25,-72.02861
99044921.875,-72.05674
99054687.5,-72.10381
99064453.125,-72.072235
99074218.75,-72.04719
99083984.375,-72.03403
99093750.0,-72.02809
99103515.625,-72.052315
99113281.25,-72.05864
99123046.875,-72.07688
99132812.5,-72.13471
99142578.125,-72.11734
99152343.75,-72.06139
99162109.375,-72.01947
99171875.0,-72.07609
99181640.625,-72.056564
99191406.25,-72.02019
99201171.875,-72.08455
99210937.5,-72.1012
99220703.125,-72.03581
99230468.75,-72.01376
99240234.375,-72.0602
99250000.0,-72.07156
99259765.625,-72.04122
99269531.25,-72.037
99279296.875,-72.08545
99289062.5,-72.0924
99298828.125,-72.05989
99308593.75,-72.05004
99318359.375,-72.046844
99328125.0,-72.04711
99337890.625,-72.09998
99347656.25,-72.05152
99357421.875,-72.07867
99367187.5,-72.101364
99376953.125,-72.089745
99386718.75,-72.05982
99396484.375,-72.08279
99406250.0,-72.12954
99416015.625,-72.06876
99425781.25,-72.01516
99435546.875,-72.086365
99445312.5,-72.14135
99455078.125,-72.07305
99464843.75,-72.04486
99474609.375,-72.0278
99484375.0,-72.05773
99494140.625,-72.114265
99503906.25,-72.088425
99513671.875,-72.06096
99523437.5,-72.08118
99533203.125,-72.081924
99542968.75,-72.0946
99552734.375,-72.04209
99562500.0,-72.06338
99572265.625,-72.068115
99582031.25,-72.11373
99591796.875,-72.04654
99601562.5,-72.051216
99611328.125,-72.0407
99621093.75,-72.057175
99630859.375,-72.08319
99640625.0,-72.06469
99650390.625,-72.10038
99660156.25,-72.12289
99669921.875,-72.08642
99679687.5,-72.07948
99689453.125,-72.05875
99699218.75,-72.03088
99708984.375,-72.09531
99718750.0,-72.108826
99728515.625,-72.074524
99738281.25,-72.08395
99748046.875,-72.063934
99757812.5,-72.10847
99767578.125,-72.07718
99777343.75,-72.05563
99787109.375,-72.11078
99796875.0,-72.04588
99806640.625,-72.02429
99816406.25,-72.046005
99826171.875,-72.10271
99835937.5,-72.05847
99845703.125,-72.06117
99855468.75,-72.07811
99865234.375,-72.08962
99875000.0,-72.11349
99884765.625,-72.05356
99894531.25,-72.055786
99904296.875,-72.03858
99914062.5,-72.09054
99923828.125,-72.11533
99933593.75,-72.1541
99943359.375,-72.12442
99953125.0,-72.06333
99962890.625,-72.084045
99972656.25,-72.065506
99982421.875,-72.09059
99992187.5,-71.900894
100001953.125,-71.64783
100011718.75,-71.999825
100021484.375,-72.06811
100031250.0,-72.07361
100041015.625,-72.07592
100050781.25,-72.045235
100060546.875,-72.06525
100070312.5,-72.035164
100080078.125,-72.056015
100089843.75,-72.057434
100099609.375,-72.02396
100109375.0,-72.0654
100119140.625,-72.04726
100128906.25,-72.00452
100138671.875,-72.05358
100148437.5,-72.087326
100158203.125,-72.037155
100167968.75,-72.03042
100177734.375,-72.069496
100187500.0,-72.11656
100197265.625,-72.12497
100207031.25,-72.09787
100216796.875,-72.08345
100226562.5,-72.07063
100236328.125,-72.06858
100246093.75,-72.01648
100255859.375,-72.036316
100265625.0,-72.04607
100275390.625,-71.99875
100285156.25,-72.03248
100294921.875,-72.048294
100304687.5,-72.04675
100314453.125,-72.0662
100324218.75,-72.07211
100333984.375,-72.04561
100343750.0,-72.02875
100353515.625,-72.05151
100363281.25,-72.054474
100373046.875,-72.032936
100382812.5,-72.067276
100392578.125,-72.09014
100402343.75,-72.12066
100412109.375,-72.08583
100421875.0,-72.0049
100431640.625,-72.01099
100441406.25,-72.04637
100451171.875,-72.08536
100460937.5,-72.07673
100470703.125,-72.07263
100480468.75,-72.073654
100490234.375,-72.0683
100500000.0,-72.08048
100509765.625,-72.01835
100519531.25,-72.0741
100529296.875,-72.05187
100539062.5,-72.0353
100548828.125,-72.09482
100558593.75,-72.10339
100568359.375,-72.01263
100578125.0,-71.965195
100587890.625,-72.05533
100597656.25,-72.08504
100607421.875,-71.99138
100617187.5,-72.005646
100626953.125,-72.07357
100636718.75,-72.03156
100646484.375,-72.034065
100656250.0,-72.04261
100666015.625,-72.030495
100675781.25,-71.97747
100685546.875,-72.042336
100695312.5,-72.034904
100705078.125,-72.065704
100714843.75,-72.06504
100724609.375,-72.02306
100734375.0,-72.07177
100744140.625,-72.026985
100753906.25,-72.0407
100763671.875,-72.03073
100773437.5,-72.02056
100783203.125,-71.990555
100792968.75,-71.98429
100802734.375,-71.99833
100812500.0,-71.98108
100822265.625,-72.00533
100832031.25,-72.014366
100841796.875,-72.06513
100851562.5,-72.07701
100861328.125,-72.086365
100871093.75,-72.012314
100880859.375,-71.98765
100890625.0,-72.03719
100900390.625,-72.06831
100910156.25,-72.027
100919921.875,-71.94816
100929687.5,-71.963165
100939453.125,-71.987915
100949218.75,-71.98338
100958984.375,-72.03439
100968750.0,-72.05297
100978515.625,-72.068985
100988281.25,-72.0831
100998046.875,-72.07907
101007812.5,-72.03307
101017578.125,-72.048294
101027343.75,-72.04228
101037109.375,-72.049644
101046875.0,-72.03119
101056640.625,-72.01349
101066406.25,-71.97648
101076171.875,-72.00105
101085937.5,-72.04995
101095703.125,-72.0293
101105468.75,-72.00972
101115234.375,-72.0971
101125000.0,-72.05557
101134765.625,-72.05269
101144531.25,-72.056625
101154296.875,-72.06059
101164062.5,-72.03736
101173828.125,-72.05012
101183593.75,-72.03338
101193359.375,-72.06175
101203125.0,-72.081894
101212890.625,-72.03399
101222656.25,-72.00392
101232421.875,-72.06126
101242187.5,-72.0856
101251953.125,-72.123535
101261718.75,-72.12001
101271484.375,-72.08638
101281250.0,-72.03429
101291015.625,-72.02295
101300781.25,-72.01828
101310546.875,-72.041405
101320312.5,-72.06514
101330078.125,-72.047035
101339843.75,-72.01091
101349609.375,-72.02452
101359375.0,-72.058235
101369140.625,-71.97922
101378906.25,-71.94953
101388671.875,-72.00599
101398437.5,-72.026085
101408203.125,-72.030495
101417968.75,-72.021645
101427734.375,-72.03068
101437500.0,-72.04535
101447265.625,-72.05616
101457031.25,-72.02784
101466796.875,-72.07347
101476562.5,-72.095634
101486328.125,-72.05815
101496093.75,-72.046135
101505859.375,-72.03905
101515625.0,-72.07461
101525390.625,-72.075836
101535156.25,-71.96022
101544921.875,-72.007545
101554687.5,-72.066124
101564453.125,-72.05677
101574218.75,-72.115295
101583984.375,-72.08852
101593750.0,-72.048996
101603515.625,-72.08729
101613281.25,-72.085266
101623046.875,-72.12649
101632812.5,-72.13578
101642578.125,-72.07945
101652343.75,-72.06923
101662109.375,-72.08478
101671875.0,-72.06569
101681640.625,-71.96747
101691406.25,-71.98283
101701171.875,-71.99807
101710937.5,-72.03218
101720703.125,-71.95621
101730468.75,-71.96858
101740234.375,-71.9984
101750000.0,-72.021675
101759765.625,-72.07306
101769531.25,-72.03057
101779296.875,-72.00645
101789062.5,-71.98378
101798828.125,-72.01123
101808593.75,-71.99487
101818359.375,-72.00087
101828125.0,-72.047646
101837890.625,-72.008865
101847656.25,-72.03215
101857421.875,-72.05407
101867187.5,-72.07574
101876953.125,-72.04692
101886718.75,-72.00558
101896484.375,-72.03025
101906250.0,-72.02154
101916015.625,-72.05507
101925781.25,-72.07168
101935546.875,-72.044495
101945312.5,-72.05822
101955078.125,-72.05645
101964843.75,-72.00389
101974609.375,-72.03582
101984375.0,-72.06137
101994140.625,-72.087776
102003906.25,-72.07741
102013671.875,-72.02686
102023437.5,-72.04581
102033203.125,-72.08635
102042968.75,-72.07936
102052734.375,-72.05459
102062500.0,-72.02011
102072265.625,-72.07624
102082031.25,-72.14136
102091796.875,-72.068474
102101562.5,-72.01619
102111328.125,-72.03256
102121093.75,-72.06243
102130859.375,-72.02952
102140625.0,-72.03929
102150390.625,-72.05222
102160156.25,-72.05067
102169921.875,-72.03734
102179687.5,-72.10647
102189453.125,-72.11055
102199218.75,-72.11153
102208984.375,-72.069695
102218750.0,-72.02247
102228515.625,-72.00345
102238281.25,-72.04889
102248046.875,-72.050545
102257812.5,-72.05362
102267578.125,-72.03082
102277343.75,-72.027336
102287109.375,-72.053665
102296875.0,-72.052704
102306640.625,-72.06762
102316406.25,-72.07345
102326171.875,-72.07361
102335937.5,-72.05827
102345703.125,-72.03106
102355468.75,-72.09618
102365234.375,-72.04121
102375000.0,-72.003204
102384765.625,-72.05934
102394531.25,-72.10596
102404296.875,-72.08797
102414062.5,-72.06177
102423828.125,-72.06468
102433593.75,-72.129135
102443359.375,-72.04362
102453125.0,-72.04149
102462890.625,-72.055214
102472656.25,-72.04754
102482421.875,-72.05101
102492187.5,-72.01541
102501953.125,-72.04974
102511718.75,-72.05648
102521484.375,-72.03402
102531250.0,-72.04813
102541015.625,-72.068695
102550781.25,-72.07002
102560546.875,-72.0637
102570312.5,-72.0394
102580078.125,-72.03175
102589843.75,-72.07512
102599609.375,-72.07231
102609375.0,-72.04705
102619140.625,-72.04072
102628906.25,-72.03216
102638671.875,-72.07059
102648437.5,-72.08854
102658203.125,-72.082275
102667968.75,-72.139366
102677734.375,-72.16734
102687500.0,-72.07902
102697265.625,-72.01558
102707031.25,-72.041336
102716796.875,-72.073204
102726562.5,-72.099365
102736328.125,-72.102135
102746093.75,-72.06058
102755859.375,-72.04916
102765625.0,-72.03604
102775390.625,-72.05851
102785156.25,-72.05713
102794921.875,-72.07005
102804687.5,-72.04567
102814453.125,-72.059296
102824218.75,-72.100235
102833984.375,-72.097084
102843750.0,-72.07649
102853515.625,-72.082054
102863281.25,-72.05875
102873046.875,-72.03972
102882812.5,-71.9762
102892578.125,-72.04278
102902343.75,-72.06386
102912109.375,-72.069824
102921875.0,-72.08821
102931640.625,-72.02911
102941406.25,-72.03706
102951171.875,-72.067245
102960937.5,-72.07664
102970703.125,-72.05197
102980468.75,-72.0543
102990234.375,-72.0942
103000000.0,-72.0777
103009765.625,-72.06444
103019531.25,-72.04196
103029296.875,-72.04402
103039062.5,-72.06027
103048828.125,-72.07228
103058593.75,-72.07368
103068359.375,-72.00535
103078125.0,-71.96388
103087890.625,-72.04939
103097656.25,-72.081245
103107421.875,-72.019035
103117187.5,-72.00946
103126953.125,-72.035286
103136718.75,-72.05735
103146484.375,-72.10518
103156250.0,-72.085884
103166015.625,-72.104126
103175781.25,-72.06495
103185546.875,-72.04345
103195312.5,-72.07246
103205078.125,-72.02567
103214843.75,-71.9928
103224609.375,-72.0353
103234375.0,-72.0701
103244140.625,-72.06368
103253906.25,-72.04669
103263671.875,-72.0497
103273437.5,-72.04661
103283203.125,-72.062515
103292968.75,-72.06708
103302734.375,-72.052444
103312500.0,-72.02262
103322265.625,-72.00538
103332031.25,-72.05895
103341796.875,-72.090096
103351562.5,-72.074066
103361328.125,-72.02955
103371093.75,-72.03094
103380859.375,-72.074135
103390625.0,-72.067184
103400390.625,-72.03991
103410156.25,-72.0807
103419921.875,-72.13233
103429687.5,-72.10421
103439453.125,-72.13737
103449218.75,-72.11607
103458984.375,-72.08398
103468750.0,-72.04392
103478515.625,-72.04718
103488281.25,-72.02538
103498046.875,-72.01424
103507812.5,-72.015526
103517578.125,-72.06634
103527343.75,-72.07836
103537109.375,-72.04615
103546875.0,-72.068344
103556640.625,-72.06307
103566406.25,-72.07919
103576171.875,-72.08992
103585937.5,-72.09462
103595703.125,-72.00453
103605468.75,-71.998375
103615234.375,-72.06933
103625000.0,-72.042175
103634765.625,-72.026474
103644531.25,-72.06259
103654296.875,-72.029495
103664062.5,-72.03856
103673828.125,-71.997765
103683593.75,-72.042984
103693359.375,-71.99652
103703125.0,-72.005264
103712890.625,-72.01515
103722656.25,-72.07872
103732421.875,-72.04914
103742187.5,-72.02104
103751953.125,-72.00839
103761718.75,-72.03896
103771484.375,-72.066086
103781250.0,-72.06032
103791015.625,-72.01475
103800781.25,-72.07984
103810546.875,-72.03149
103820312.5,-72.05079
103830078.125,-72.06574
103839843.75,-72.09388
103849609.375,-72.04895
103859375.0,-72.044655
103869140.625,-72.041145
103878906.25,-72.04989
103888671.875,-72.05407
103898437.5,-72.05557
103908203.125,-72.108086
103917968.75,-72.0851
103927734.375,-72.03195
103937500.0,-71.99305
103947265.625,-72.03434
103957031.25,-72.05746
103966796.875,-72.046616
103976562.5,-72.06088
103986328.125,-72.012314
103996093.75,-71.70177
104005859.375,-71.81231
104015625.0,-71.98282
104025390.625,-72.01178
104035156.25,-72.03854
104044921.875,-71.997925
104054687.5,-71.99162
104064453.125,-71.98563
104074218.75,-72.01579
104083984.375,-72.02356
104093750.0,-72.02408
104103515.625,-72.03931
104113281.25,-72.05543
104123046.875,-72.08602
104132812.5,-72.03752
104142578.125,-72.001945
104152343.75,-72.02779
104162109.375,-72.06555
104171875.0,-72.02496
104181640.625,-72.02491
104191406.25,-72.05712
104201171.875,-72.034355
104210937.5,-72.05564
104220703.125,-72.05173
104230468.75,-72.001526
104240234.375,-71.98179
104250000.0,-71.97744
104259765.625,-72.01564
104269531.25,-72.007454
104279296.875,-71.991325
104289062.5,-72.03715
104298828.125,-72.092896
104308593.75,-72.04199
104318359.375,-71.97766
104328125.0,-72.04083
104337890.625,-72.11171
104347656.25,-72.064354
104357421.875,-72.069916
104367187.5,-72.04932
104376953.125,-72.017784
104386718.75,-72.035706
104396484.375,-72.060455
104406250.0,-72.06803
104416015.625,-72.05683
104425781.25,-72.0524
104435546.875,-72.004234
104445312.5,-72.01738
104455078.125,-72.08685
104464843.75,-72.11494
104474609.375,-72.037
104484375.0,-72.012245
104494140.625,-72.02272
104503906.25,-72.05443
104513671.875,-72.03361
104523437.5,-72.01639
104533203.125,-71.970535
104542968.75,-72.00272
104552734.375,-71.984
104562500.0,-71.99156
104572265.625,-71.96582
104582031.25,-71.978165
104591796.875,-72.029396
104601562.5,-72.04398
104611328.125,-72.00996
104621093.75,-71.97742
104630859.375,-72.0186
104640625.0,-72.04916
104650390.625,-72.07034
104660156.25,-71.999985
104669921.875,-72.01354
104679687.5,-72.03573
104689453.125,-72.0255
104699218.75,-72.02011
104708984.375,-72.02681
104718750.0,-71.98664
104728515.625,-72.04224
104738281.25,-72.04635
104748046.875,-72.01199
104757812.5,-72.05545
104767578.125,-71.98695
104777343.75,-71.98171
104787109.375,-72.01148
104796875.0,-71.992165
104806640.625,-71.96333
104816406.25,-72.03198
104826171.875,-72.02895
104835937.5,-72.04079
104845703.125,-72.06486
104855468.75,-72.08324
104865234.375,-72.07454
104875000.0,-72.06351
104884765.625,-72.06882
104894531.25,-72.049385
104904296.875,-72.0598
104914062.5,-72.059494
104923828.125,-72.03719
104933593.75,-72.01333
104943359.375,-71.998276
104953125.0,-72.017555
104962890.625,-72.021835
104972656.25,-72.0112
104982421.875,-72.02882
104992187.5,-72.090004
105001953.125,-72.053
105011718.75,-72.021065
105021484.375,-71.99169
105031250.0,-71.997536
105041015.625,-72.020905
105050781.25,-72.04243
105060546.875,-72.02022
105070312.5,-72.01056
105080078.125,-72.037186
105089843.75,-71.99751
105099609.375,-72.05402
105109375.0,-72.02211
105119140.625,-72.02664
105128906.25,-72.04934
105138671.875,-72.056984
105148437.5,-72.052284
105158203.125,-72.08356
105167968.75,-72.09238
105177734.375,-72.089775
105187500.0,-72.07411
105197265.625,-72.02718
105207031.25,-72.064735
105216796.875,-72.05621
105226562.5,-72.0616
105236328.125,-72.021706
105246093.75,-72.04276
105255859.375,-72.03245
105265625.0,-72.05299
105275390.625,-72.09603
105285156.25,-72.03126
105294921.875,-72.01266
105304687.5,-72.05205
105314453.125,-72.05783
105324218.75,-72.07496
105333984.375,-72.08538
105343750.0,-72.06144
105353515.625,-72.070114
105363281.25,-72.08379
105373046.875,-72.06622
105382812.5,-72.01245
105392578.125,-72.01455
105402343.75,-71.98998
105412109.375,-72.005905
105421875.0,-71.99581
105431640.625,-72.056435
105441406.25,-72.055595
105451171.875,-72.03107
105460937.5,-72.08219
105470703.125,-72.02997
105480468.75,-72.01209
105490234.375,-72.08939
105500000.0,-72.11432
105509765.625,-72.06763
105519531.25,-72.05234
105529296.875,-72.10212
105539062.5,-72.090614
105548828.125,-72.06699
105558593.75,-72.046135
105568359.375,-72.03126
105578125.0,-72.00029
105587890.625,-71.99645
105597656.25,-72.01918
105607421.875,-72.01337
105617187.5,-72.02214
105626953.125,-72.03629
105636718.75,-72.022194
105646484.375,-72.03278
105656250.0,-72.04878
105666015.625,-72.08258
105675781.25,-72.13702
105685546.875,-72.09235
105695312.5,-71.9988
105705078.125,-72.02472
105714843.75,-72.064095
105724609.375,-72.06927
105734375.0,-72.04145
105744140.625,-72.06506
105753906.25,-72.06029
105763671.875,-72.04179
105773437.5,-72.02447
105783203.125,-72.088585
105792968.75,-72.075264
105802734.375,-72.02206
105812500.0,-72.07334
105822265.625,-72.08232
105832031.25,-72.09021
105841796.875,-72.045906
105851562.5,-72.026855
105861328.125,-72.06957
105871093.75,-72.09599
105880859.375,-72.105705
105890625.0,-72.08929
105900390.625,-72.07651
105910156.25,-72.088615
105919921.875,-72.05054
105929687.5,-72.0165
105939453.125,-72.03714
105949218.75,-72.09557
105958984.375,-72.1057
105968750.0,-72.023254
105978515.625,-72.0471
105988281.25,-72.07278
105998046.875,-72.03399
106007812.5,-72.034775
106017578.125,-72.05631
106027343.75,-72.05155
106037109.375,-72.01908
106046875.0,-72.03227
106056640.625,-71.98605
106066406.25,-71.99925
106076171.875,-72.07851
106085937.5,-72.06352
106095703.125,-72.053535
106105468.75,-72.05105
106115234.375,-72.03918
106125000.0,-72.05436
106134765.625,-72.07905
106144531.25,-72.035065
106154296.875,-72.03227
106164062.5,-72.07197
106173828.125,-72.00415
106183593.75,-72.034874
106193359.375,-72.03779
106203125.0,-72.067856
106212890.625,-72.0401
106222656.25,-72.0395
106232421.875,-72.04555
106242187.5,-72.06028
106251953.125,-72.087776
106261718.75,-72.1066
106271484.375,-72.0593
106281250.0,-72.03021
106291015.625,-72.023506
106300781.25,-72.02252
106310546.875,-72.01433
106320312.5,-72.023735
106330078.125,-72.04543
106339843.75,-72.014984
106349609.375,-71.97761
106359375.0,-72.027145
106369140.625,-72.10047
106378906.25,-71.99204
106388671.875,-72.00841
106398437.5,-72.01978
106408203.125,-72.028046
106417968.75,-72.01663
106427734.375,-72.019875
106437500.0,-72.049515
106447265.625,-72.06294
106457031.25,-72.06549
106466796.875,-72.03223
106476562.5,-72.01154
106486328.125,-72.00045
106496093.75,-71.98829
106505859.375,-72.073364
106515625.0,-72.071526
106525390.625,-72.03236
106535156.25,-72.05913
106544921.875,-72.062675
106554687.5,-72.0121
106564453.125,-72.0902
106574218.75,-72.05655
106583984.375,-71.9729
106593750.0,-72.00525
106603515.625,-71.94227
106613281.25,-71.98021
106623046.875,-72.02334
106632812.5,-72.008965
106642578.125,-72.1099
106652343.75,-72.07379
106662109.375,-72.032196
106671875.0,-72.046234
106681640.625,-72.03576
106691406.25,-72.0852
106701171.875,-72.03591
106710937.5,-72.01203
106720703.125,-72.039696
106730468.75,-72.031006
106740234.375,-72.01009
106750000.0,-72.04436
106759765.625,-72.011856
106769531.25,-71.997894
106779296.875,-72.02982
106789062.5,-72.05585
106798828.125,-72.035515
106808593.75,-71.997696
106818359.375,-71.97842
106828125.0,-72.00471
106837890.625,-71.99494
106847656.25,-72.02951
106857421.875,-72.01315
106867187.5,-72.06592
106876953.125,-72.083115
106886718.75,-72.03025
106896484.375,-72.062675
106906250.0,-72.02632
106916015.625,-71.98075
106925781.25,-72.03966
106935546.875,-72.049416
106945312.5,-72.007645
106955078.125,-71.97153
106964843.75,-71.99406
106974609.375,-72.01048
106984375.0,-72.05047
106994140.625,-72.02937
107003906.25,-72.01601
107013671.875,-71.99859
107023437.5,-72.00512
107033203.125,-72.021736
107042968.75,-71.99199
107052734.375,-72.017296
107062500.0,-71.97409
107072265.625,-71.99603
107082031.25,-72.043846
107091796.875,-72.055214
107101562.5,-72.01756
107111328.125,-72.009
107121093.75,-72.03048
107130859.375,-71.9959
107140625.0,-72.02367
107150390.625,-71.979324
107160156.25,-71.991104
107169921.875,-71.991875
107179687.5,-72.02475
107189453.125,-72.01628
107199218.75,-71.99914
107208984.375,-72.03787
107218750.0,-72.06864
107228515.625,-72.04376
107238281.25,-72.02022
107248046.875,-72.04243
107257812.5,-72.0381
107267578.125,-71.96693
107277343.75,-72.02122
107287109.375,-72.0502
107296875.0,-72.01364
107306640.625,-71.995155
107316406.25,-71.96845
107326171.875,-71.99555
107335937.5,-71.9767
107345703.125,-72.02068
107355468.75,-72.004684
107365234.375,-72.044334
107375000.0,-72.04604
107384765.625,-71.96794
107394531.25,-71.994644
107404296.875,-71.96593
107414062.5,-71.92184
107423828.125,-71.969955
107433593.75,-71.98682
107443359.375,-71.969376
107453125.0,-71.92731
107462890.625,-71.93699
107472656.25,-71.97956
107482421.875,-71.99958
107492187.5,-71.956474
107501953.125,-71.94969
107511718.75,-71.97793
107521484.375,-71.99063
107531250.0,-72.013275
107541015.625,-72.04665
107550781.25,-72.015305
107560546.875,-72.00246
107570312.5,-71.96173
107580078.125,-71.94314
107589843.75,-71.98197
107599609.375,-71.98403
107609375.0,-72.01312
107619140.625,-72.00584
107628906.25,-71.96043
107638671.875,-71.94536
107648437.5,-71.99605
107658203.125,-71.96571
107667968.75,-71.950516
107677734.375,-71.97681
107687500.0,-71.993706
107697265.625,-71.9658
107707031.25,-71.98565
107716796.875,-71.99083
107726562.5,-71.94806
107736328.125,-71.94523
107746093.75,-71.90057
107755859.375,-71.91103
107765625.0,-71.96001
107775390.625,-71.92033
107785156.25,-71.91015
107794921.875,-71.935715
107804687.5,-71.93601
107814453.125,-71.97334
107824218.75,-71.93212
107833984.375,-71.884735
107843750.0,-71.886734
107853515.625,-71.91426
107863281.25,-71.88058
107873046.875,-71.83872
107882812.5,-71.8422
107892578.125,-71.85308
107902343.75,-71.82359
107912109.375,-71.7572
107921875.0,-71.753815
107931640.625,-71.7149
107941406.25,-71.66322
107951171.875,-71.54138
107960937.5,-71.51503
107970703.125,-71.38219
107980468.75,-70.969536
107990234.375,-71.187325
108000000.0,-75.20357
108009765.625,-71.20251
108019531.25,-70.86017
108029296.875,-71.226555
108039062.5,-71.51389
108048828.125,-71.62064
108058593.75,-71.70661
108068359.375,-71.69625
108078125.0,-71.735886
108087890.625,-71.77146
108097656.25,-71.78391
108107421.875,-71.82047
108117187.5,-71.905464
108126953.125,-71.87684
108136718.75,-71.908295
108146484.375,-71.89744
108156250.0,-71.86908
108166015.625,-71.85877
108175781.25,-71.91949
108185546.875,-71.945206
108195312.5,-71.89664
108205078.125,-71.918686
108214843.75,-71.92774
108224609.375,-71.92974
108234375.0,-71.97367
108244140.625,-71.99669
108253906.25,-71.97557
108263671.875,-71.96005
108273437.5,-71.954384
108283203.125,-71.93584
108292968.75,-71.94538
108302734.375,-72.00893
108312500.0,-72.00542
108322265.625,-71.99222
108332031.25,-71.98054
108341796.875,-71.991615
108351562.5,-72.00746
108361328.125,-71.9758
108371093.75,-71.95825
108380859.375,-71.98241
108390625.0,-72.014175
108400390.625,-71.9884
108410156.25,-72.04074
108419921.875,-72.008095
108429687.5,-71.99793
108439453.125,-72.0073
108449218.75,-72.028755
108458984.375,-72.01608
108468750.0,-72.048355
108478515.625,-71.97152
108488281.25,-71.9984
108498046.875,-71.99209
108507812.5,-71.99515
108517578.125,-71.97061
108527343.75,-72.02597
108537109.375,-72.02421
108546875.0,-71.99834
108556640.625,-71.986244
108566406.25,-71.99125
108576171.875,-72.003334
108585937.5,-72.007706
108595703.125,-71.960014
108605468.75,-71.997955
108615234.375,-72.05507
108625000.0,-71.987175
108634765.625,-72.02133
108644531.25,-72.06946
108654296.875,-72.04207
108664062.5,-72.003716
108673828.125,-71.956276
108683593.75,-71.98568
108693359.375,-71.9619
108703125.0,-72.00889
108712890.625,-72.022285
108722656.25,-71.99386
108732421.875,-71.99155
108742187.5,-72.00593
108751953.125,-72.06862
108761718.75,-72.073586
108771484.375,-72.03092
108781250.0,-72.0274
108791015.625,-71.99232
108800781.25,-71.998085
108810546.875,-72.05596
108820312.5,-72.06968
108830078.125,-72.00467
108839843.75,-72.04846
108849609.375,-72.05652
108859375.0,-72.04951
108869140.625,-72.05745
108878906.25,-72.01669
108888671.875,-72.02873
108898437.5,-72.06217
108908203.125,-72.04646
108917968.75,-72.05701
108927734.375,-72.02609
108937500.0,-72.021286
108947265.625,-72.04151
108957031.25,-72.041664
108966796.875,-72.00341
108976562.5,-72.01749
108986328.125,-72.009766
108996093.75,-72.026886
109005859.375,-72.01374
109015625.0,-71.98443
109025390.625,-72.02608
109035156.25,-72.028275
109044921.875,-71.971596
109054687.5,-71.97429
109064453.125,-72.08023
109074218.75,-72.02444
109083984.375,-71.9664
109093750.0,-72.00184
109103515.625,-72.0262
109113281.25,-72.06207
109123046.875,-72.095955
109132812.5,-72.08682
109142578.125,-72.01055
109152343.75,-72.024796
109162109.375,-72.01204
109171875.0,-72.023155
109181640.625,-71.98808
109191406.25,-71.99905
109201171.875,-72.0305
109210937.5,-72.067955
109220703.125,-72.05698
109230468.75,-71.95409
109240234.375,-71.961464
109250000.0,-72.030975
109259765.625,-72.05839
109269531.25,-72.06305
109279296.875,-72.053406
109289062.5,-72.02538
109298828.125,-72.04436
109308593.75,-72.02203
109318359.375,-71.99239
109328125.0,-72.02426
109337890.625,-72.07181
109347656.25,-72.02737
109357421.875,-71.99288
109367187.5,-72.040115
109376953.125,-72.06247
109386718.75,-72.039955
109396484.375,-72.017715
109406250.0,-72.00426
109416015.625,-72.028534
109425781.25,-72.05502
109435546.875,-72.02337
109445312.5,-72.02335
109455078.125,-72.04564
109464843.75,-72.025894
109474609.375,-72.00171
109484375.0,-72.004456
109494140.625,-71.994225
109503906.25,-72.02839
109513671.875,-72.01621
109523437.5,-71.97686
109533203.125,-71.97864
109542968.75,-72.043945
109552734.375,-72.09099
109562500.0,-72.05264
109572265.625,-72.02186
109582031.25,-72.01047
109591796.875,-72.02805
109601562.5,-72.05584
109611328.125,-72.03689
109621093.75,-72.03517
109630859.375,-72.00471
109640625.0,-71.97082
109650390.625,-71.99635
109660156.25,-72.07255
109669921.875,-72.112915
109679687.5,-72.03166
109689453.125,-71.97425
109699218.75,-71.97595
109708984.375,-71.99218
109718750.0,-72.0212
109728515.625,-72.08714
109738281.25,-72.12638
109748046.875,-72.111626
109757812.5,-72.059456
109767578.125,-72.0403
109777343.75,-72.053444
109787109.375,-72.04525
109796875.0,-72.093834
109806640.625,-72.056694
109816406.25,-72.00599
109826171.875,-72.01969
109835937.5,-72.01389
109845703.125,-72.00569
109855468.75,-72.01046
109865234.375,-72.0535
109875000.0,-72.04443
109884765.625,-72.051605
109894531.25,-72.02533
109904296.875,-71.9799
109914062.5,-72.01251
109923828.125,-72.03154
109933593.75,-72.02727
109943359.375,-71.98477
109953125.0,-72.02916
109962890.625,-72.05019
109972656.25,-72.060555
109982421.875,-72.02115
109992187.5,-72.022484
110001953.125,-72.032135
110011718.75,-71.995026
110021484.375,-71.990685
110031250.0,-72.056366
110041015.625,-72.068756
110050781.25,-72.06264
110060546.875,-71.9731
110070312.5,-72.02447
110080078.125,-72.054565
110089843.75,-72.06823
110099609.375,-72.04207
110109375.0,-72.03435
110119140.625,-72.031136
110128906.25,-72.00012
110138671.875,-72.022865
110148437.5,-72.04677
110158203.125,-72.039764
110167968.75,-72.05886
110177734.375,-72.09508
110187500.0,-72.076706
110197265.625,-72.072296
110207031.25,-72.0837
110216796.875,-72.008446
110226562.5,-72.04959
110236328.125,-72.0439
110246093.75,-72.04481
110255859.375,-72.03244
110265625.0,-72.01413
110275390.625,-72.0062
110285156.25,-72.02609
110294921.875,-72.021545
110304687.5,-72.00725
110314453.125,-72.020355
110324218.75,-72.056244
110333984.375,-72.040855
110343750.0,-71.96883
110353515.625,-71.98753
110363281.25,-72.01155
110373046.875,-71.95859
110382812.5,-72.00284
110392578.125,-72.055504
110402343.75,-71.98674
110412109.375,-72.04046
110421875.0,-72.062386
110431640.625,-72.02507
110441406.25,-72.018
110451171.875,-72.04352
110460937.5,-72.052376
110470703.125,-72.03427
110480468.75,-72.0452
110490234.375,-72.075455
110500000.0,-72.06134
110509765.625,-72.03566
110519531.25,-72.086266
110529296.875,-72.049706
110539062.5,-72.06296
110548828.125,-72.06043
110558593.75,-72.06331
110568359.375,-72.02731
110578125.0,-71.96986
110587890.625,-72.00194
110597656.25,-71.99445
110607421.875,-72.00742
110617187.5,-71.981155
110626953.125,-72.01044
110636718.75,-72.00239
110646484.375,-72.02599
110656250.0,-72.0437
110666015.625,-72.02493
110675781.25,-72.063
110685546.875,-72.04833
110695312.5,-72.053055
110705078.125,-72.016815
110714843.75,-71.98899
110724609.375,-72.00657
110734375.0,-72.00904
110744140.625,-72.064964
110753906.25,-72.07696
110763671.875,-72.034904
110773437.5,-71.959335
110783203.125,-71.98843
110792968.75,-72.02573
110802734.375,-72.046135
110812500.0,-72.03251
110822265.625,-72.049835
110832031.25,-72.064735
110841796.875,-72.022316
110851562.5,-72.05611
110861328.125,-72.0719
110871093.75,-72.06816
110880859.375,-72.05532
110890625.0,-71.99368
110900390.625,-72.01522
110910156.25,-71.99958
110919921.875,-71.988754
110929687.5,-72.00169
110939453.125,-72.0343
110949218.75,-72.0196
110958984.375,-72.00387
110968750.0,-71.99133
110978515.625,-72.04668
110988281.25,-72.05212
110998046.875,-72.03835
111007812.5,-72.09916
111017578.125,-72.0695
111027343.75,-71.99959
111037109.375,-71.9947
111046875.0,-72.079994
111056640.625,-72.0448
111066406.25,-72.065
111076171.875,-72.07025
111085937.5,-72.02527
111095703.125,-72.01524
111105468.75,-72.0596
111115234.375,-72.036674
111125000.0,-71.99414
111134765.625,-72.03601
111144531.25,-72.05295
111154296.875,-72.00461
111164062.5,-72.04006
111173828.125,-72.05219
111183593.75,-72.05557
111193359.375,-72.0423
111203125.0,-72.02255
111212890.625,-72.02321
111222656.25,-72.07139
111232421.875,-72.0
111242187.5,-71.98457
111251953.125,-71.99848
111261718.75,-72.02467
111271484.375,-72.05732
111281250.0,-71.963
111291015.625,-72.02109
111300781.25,-72.03392
111310546.875,-72.008804
111320312.5,-71.97358
111330078.125,-72.058655
111339843.75,-72.06199
111349609.375,-72.04753
111359375.0,-72.01933
111369140.625,-72.05235
111378906.25,-72.05313
111388671.875,-72.00986
111398437.5,-72.01251
111408203.125,-72.00416
111417968.75,-72.00584
111427734.375,-72.01696
111437500.0,-72.06315
111447265.625,-72.04514
111457031.25,-72.01122
111466796.875,-71.99973
111476562.5,-72.01936
111486328.125,-72.01943
111496093.75,-72.00571
111505859.375,-71.97391
111515625.0,-72.02298
111525390.625,-72.05004
111535156.25,-72.059746
111544921.875,-72.06985
111554687.5,-72.0567
111564453.125,-72.057335
111574218.75,-72.01166
111583984.375,-71.99981
111593750.0,-72.03641
111603515.625,-72.04184
111613281.25,-71.987274
111623046.875,-72.01152
111632812.5,-72.05365
111642578.125,-72.06564
111652343.75,-72.03632
111662109.375,-72.053185
111671875.0,-72.02742
111681640.625,-72.06767
111691406.25,-72.06617
111701171.875,-72.063416
111710937.5,-72.068504
111720703.125,-72.106766
111730468.75,-72.02637
111740234.375,-71.95942
111750000.0,-71.94623
111759765.625,-71.95463
111769531.25,-71.99693
111779296.875,-72.064186
111789062.5,-72.055435
111798828.125,-72.0218
111808593.75,-72.05181
111818359.375,-72.071434
111828125.0,-72.067894
111837890.625,-72.040955
111847656.25,-72.0391
111857421.875,-71.98034
111867187.5,-72.01739
111876953.125,-72.016884
111886718.75,-72.023705
111896484.375,-72.01422
111906250.0,-72.01712
111916015.625,-72.063805
111925781.25,-72.07519
111935546.875,-72.07969
111945312.5,-72.09265
111955078.125,-72.08749
111964843.75,-72.072464
111974609.375,-72.03637
111984375.0,-72.04804
111994140.625,-72.01038
112003906.25,-72.00635
112013671.875,-72.03986
112023437.5,-71.99145
112033203.125,-72.01555
112042968.75,-72.03889
112052734.375,-72.02808
112062500.0,-72.04377
112072265.625,-71.98543
112082031.25,-72.06972
112091796.875,-72.14182
112101562.5,-72.098526
112111328.125,-72.051704
112121093.75,-72.07378
112130859.375,-72.029434
112140625.0,-72.036545
112150390.625,-72.04548
112160156.25,-72.04671
112169921.875,-72.06372
112179687.5,-72.07099
112189453.125,-72.08673
112199218.75,-72.06041
112208984.375,-72.02028
112218750.0,-72.03229
112228515.625,-72.06038
112238281.25,-72.081116
112248046.875,-72.02494
112257812.5,-72.06071
112267578.125,-72.05797
112277343.75,-72.04031
112287109.375,-72.01554
112296875.0,-72.07004
112306640.625,-72.0399
112316406.25,-72.01912
112326171.875,-72.022194
112335937.5,-72.01205
112345703.125,-72.01943
112355468.75,-72.027725
112365234.375,-72.036385
112375000.0,-72.043915
112384765.625,-72.0457
112394531.25,-72.03528
112404296.875,-72.04676
112414062.5,-72.05779
112423828.125,-72.04382
112433593.75,-72.05619
112443359.375,-72.08917
112453125.0,-72.066216
112462890.625,-72.07033
112472656.25,-72.12427
112482421.875,-72.07501
112492187.5,-72.03634
112501953.125,-72.102615
112511718.75,-72.10071
112521484.375,-72.09851
112531250.0,-72.12562
112541015.625,-72.11213
112550781.25,-72.047585
112560546.875,-72.06038
112570312.5,-72.063385
112580078.125,-72.07086
112589843.75,-72.06071
112599609.375,-72.040054
112609375.0,-72.028336
112619140.625,-72.07113
112628906.25,-72.07275
112638671.875,-72.062614
112648437.5,-72.059204
112658203.125,-72.07041
112667968.75,-72.05647
112677734.375,-72.086975
112687500.0,-72.06601
112697265.625,-72.05773
112707031.25,-72.0825
112716796.875,-72.08197
112726562.5,-72.06422
112736328.125,-72.007935
112746093.75,-72.04103
112755859.375,-72.08237
112765625.0,-72.10162
112775390.625,-72.05473
112785156.25,-71.99578
112794921.875,-72.03418
112804687.5,-72.055824
112814453.125,-72.01387
112824218.75,-72.05361
112833984.375,-72.058975
112843750.0,-72.03834
112853515.625,-72.032
112863281.25,-72.06589
112873046.875,-72.11987
112882812.5,-72.0316
112892578.125,-71.98811
112902343.75,-72.0231
112912109.375,-72.03632
112921875.0,-72.084145
112931640.625,-72.0546
112941406.25,-72.051834
112951171.875,-72.05365
112960937.5,-72.05435
112970703.125,-72.0734
112980468.75,-72.0226
112990234.375,-71.975174
113000000.0,-72.00816
113009765.625,-72.02139
113019531.25,-71.98941
113029296.875,-72.03122
113039062.5,-72.030975
113048828.125,-72.017105
113058593.75,-72.06296
113068359.375,-72.06191
113078125.0,-72.053444
113087890.625,-72.07887
113097656.25,-72.0655
113107421.875,-72.04283
113117187.5,-72.07408
113126953.125,-72.05174
113136718.75,-72.04562
113146484.375,-72.07418
113156250.0,-72.03401
113166015.625,-72.03141
113175781.25,-72.08505
113185546.875,-72.06997
113195312.5,-72.080666
113205078.125,-72.07007
113214843.75,-72.04287
113224609.375,-72.092064
113234375.0,-72.06382
113244140.625,-72.113754
113253906.25,-72.081184
113263671.875,-72.00066
113273437.5,-72.02929
113283203.125,-72.07373
113292968.75,-72.06388
113302734.375,-72.02846
113312500.0,-72.055595
113322265.625,-72.099365
113332031.25,-72.09075
113341796.875,-72.04221
113351562.5,-72.02611
113361328.125,-72.04547
113371093.75,-72.058716
113380859.375,-72.059494
113390625.0,-72.03107
113400390.625,-72.04366
113410156.25,-72.1063
113419921.875,-72.06893
113429687.5,-72.04068
113439453.125,-72.04101
113449218.75,-72.01768
113458984.375,-72.06862
113468750.0,-72.06016
113478515.625,-71.962524
113488281.25,-72.01315
113498046.875,-72.06372
113507812.5,-72.10086
113517578.125,-72.1049
113527343.75,-72.08472
113537109.375,-72.07078
113546875.0,-72.01668
113556640.625,-72.02328
113566406.25,-72.05577
113576171.875,-72.08453
113585937.5,-72.077934
113595703.125,-72.0896
113605468.75,-72.06513
113615234.375,-72.0012
113625000.0,-72.06255
113634765.625,-72.0329
113644531.25,-72.03783
113654296.875,-71.99434
113664062.5,-72.036896
113673828.125,-72.03395
113683593.75,-72.11998
113693359.375,-72.062225
113703125.0,-72.05909
113712890.625,-72.05128
113722656.25,-71.99459
113732421.875,-72.01762
113742187.5,-71.997
113751953.125,-72.04267
113761718.75,-72.08519
113771484.375,-72.08711
113781250.0,-72.05187
113791015.625,-72.03358
113800781.25,-72.05542
113810546.875,-72.07433
113820312.5,-72.06902
113830078.125,-72.0767
113839843.75,-72.04355
113849609.375,-72.06321
113859375.0,-72.050995
113869140.625,-72.05133
113878906.25,-72.04225
113888671.875,-72.03273
113898437.5,-72.037636
113908203.125,-72.06017
113917968.75,-72.13659
113927734.375,-72.146614
113937500.0,-72.11354
113947265.625,-72.031166
113957031.25,-72.01541
113966796.875,-72.02312
113976562.5,-72.00772
113986328.125,-71.98483
113996093.75,-72.02639
114005859.375,-72.01686
114015625.0,-72.04284
114025390.625,-72.001
114035156.25,-71.9584
114044921.875,-71.995094
114054687.5,-71.98528
114064453.125,-72.0246
114074218.75,-72.05975
114083984.375,-72.028656
114093750.0,-72.023766
114103515.625,-72.04238
114113281.25,-72.00064
114123046.875,-72.008446
114132812.5,-71.991745
114142578.125,-72.01679
114152343.75,-72.049706
114162109.375,-72.053825
114171875.0,-72.06499
114181640.625,-72.060104
114191406.25,-72.021866
114201171.875,-71.99108
114210937.5,-72.048195
114220703.125,-72.0073
114230468.75,-71.96404
114240234.375,-71.98742
114250000.0,-72.02993
114259765.625,-72.02508
114269531.25,-71.973595
114279296.875,-71.95827
114289062.5,-71.99411
114298828.125,-71.98561
114308593.75,-72.0565
114318359.375,-72.073235
114328125.0,-72.06593
114337890.625,-72.0045
114347656.25,-71.97692
114357421.875,-72.02187
114367187.5,-72.02147
114376953.125,-72.02252
114386718.75,-72.01178
114396484.375,-72.00658
114406250.0,-71.98277
114416015.625,-72.02634
114425781.25,-72.01228
114435546.875,-72.04286
114445312.5,-72.02233
114455078.125,-72.05235
114464843.75,-72.02475
114474609.375,-72.04714
114484375.0,-72.031906
114494140.625,-72.05675
114503906.25,-72.05494
114513671.875,-72.02191
114523437.5,-72.030914
114533203.125,-72.006874
114542968.75,-72.04783
114552734.375,-72.01457
114562500.0,-71.98889
114572265.625,-71.950645
114582031.25,-71.98821
114591796.875,-72.068184
114601562.5,-72.06597
114611328.125,-72.04574
114621093.75,-72.00509
114630859.375,-71.96731
114640625.0,-71.984764
114650390.625,-72.02849
114660156.25,-72.07709
114669921.875,-72.06495
114679687.5,-72.03282
114689453.125,-72.018616
114699218.75,-72.040794
114708984.375,-72.03027
114718750.0,-72.082535
114728515.625,-72.05573
114738281.25,-72.04513
114748046.875,-72.05587
114757812.5,-72.031715
114767578.125,-72.0803
114777343.75,-72.00055
114787109.375,-72.01921
114796875.0,-72.03219
114806640.625,-72.04059
114816406.25,-72.04137
114826171.875,-72.04793
114835937.5,-72.03567
114845703.125,-71.974785
114855468.75,-72.03729
114865234.375,-72.12591
114875000.0,-72.10402
114884765.625,-72.074394
114894531.25,-72.02502
114904296.875,-72.0214
114914062.5,-72.04041
114923828.125,-72.05099
114933593.75,-72.12671
114943359.375,-72.093056
114953125.0,-72.10207
114962890.625,-72.09796
114972656.25,-72.021034
114982421.875,-72.06395
114992187.5,-72.09525
115001953.125,-72.06809
115011718.75,-71.99611
115021484.375,-72.033
115031250.0,-72.0471
115041015.625,-72.07461
115050781.25,-72.06985
115060546.875,-72.070305
115070312.5,-71.99999
115080078.125,-71.99081
115089843.75,-72.07748
115099609.375,-72.087425
115109375.0,-72.10819
115119140.625,-72.09663
115128906.25,-72.01217
115138671.875,-71.968185
115148437.5,-71.994
115158203.125,-72.03346
115167968.75,-72.05845
115177734.375,-72.04349
115187500.0,-72.03143
115197265.625,-71.98001
115207031.25,-72.005615
115216796.875,-72.00772
115226562.5,-72.011566
115236328.125,-72.02458
115246093.75,-72.045364
115255859.375,-71.99861
115265625.0,-72.04439
115275390.625,-72.07386
115285156.25,-72.120346
115294921.875,-72.10685
115304687.5,-72.01564
115314453.125,-72.05966
115324218.75,-72.079
115333984.375,-72.066025
115343750.0,-72.028915
115353515.625,-72.06224
115363281.25,-72.079124
115373046.875,-72.07422
115382812.5,-72.01771
115392578.125,-72.0473
115402343.75,-72.05791
115412109.375,-72.00461
115421875.0,-72.00272
115431640.625,-72.049805
115441406.25,-72.052734
115451171.875,-72.0927
115460937.5,-72.05637
115470703.125,-71.996765
115480468.75,-72.04028
115490234.375,-72.043755
115500000.0,-72.0168
115509765.625,-72.08635
115519531.25,-72.09086
115529296.875,-72.057274
115539062.5,-72.04686
115548828.125,-72.05478
115558593.75,-72.04369
115568359.375,-72.01488
115578125.0,-72.002266
115587890.625,-72.08546
115597656.25,-72.08669
115607421.875,-72.04163
115617187.5,-72.05311
115626953.125,-72.057144
115636718.75,-72.01331
115646484.375,-72.04155
115656250.0,-72.018135
115666015.625,-72.10275
115675781.25,-72.10107
115685546.875,-72.02382
115695312.5,-72.065636
115705078.125,-72.07564
115714843.75,-72.066734
115724609.375,-72.04185
115734375.0,-72.01517
115744140.625,-72.1096
115753906.25,-72.13689
115763671.875,-72.119705
115773437.5,-72.07595
115783203.125,-72.033394
115792968.75,-72.0393
115802734.375,-72.05687
115812500.0,-72.09393
115822265.625,-72.12247
115832031.25,-72.073395
115841796.875,-72.05384
115851562.5,-72.102036
115861328.125,-72.12874
115871093.75,-72.067085
115880859.375,-72.05064
115890625.0,-72.05357
115900390.625,-72.12201
115910156.25,-72.07797
115919921.875,-72.03466
115929687.5,-72.05293
115939453.125,-72.06218
115949218.75,-72.075714
115958984.375,-72.099625
115968750.0,-72.09605
115978515.625,-72.06817
115988281.25,-72.048096
115998046.875,-71.992355
116007812.5,-72.025375
116017578.125,-72.15752
116027343.75,-72.08629
116037109.375,-72.08612
116046875.0,-72.06044
116056640.625,-72.07639
116066406.25,-72.07705
116076171.875,-72.00574
116085937.5,-72.08892
116095703.125,-72.108185
116105468.75,-72.09617
116115234.375,-72.049675
116125000.0,-72.03072
116134765.625,-72.08295
116144531.25,-72.07636
116154296.875,-72.102394
116164062.5,-72.113464
116173828.125,-72.09463
116183593.75,-72.07313
116193359.375,-72.08333
116203125.0,-72.06284
116212890.625,-72.05377
116222656.25,-72.12134
116232421.875,-72.099144
116242187.5,-72.10062
116251953.125,-72.12109
116261718.75,-72.16344
116271484.375,-72.14569
116281250.0,-72.11604
116291015.625,-72.06062
116300781.25,-72.03342
116310546.875,-72.05239
116320312.5,-72.04503
116330078.125,-72.07429
116339843.75,-72.12696
116349609.375,-72.11448
116359375.0,-72.07389
116369140.625,-72.02138
116378906.25,-72.017815
116388671.875,-72.04975
116398437.5,-72.07633
116408203.125,-72.070404
116417968.75,-72.08726
116427734.375,-72.0529
116437500.0,-72.080376
116447265.625,-72.02746
116457031.25,-72.072075
116466796.875,-72.04962
116476562.5,-72.05394
116486328.125,-72.078514
116496093.75,-72.09998
116505859.375,-72.053375
116515625.0,-72.008354
116525390.625,-72.02623
116535156.25,-72.06126
116544921.875,-72.06023
116554687.5,-72.07836
116564453.125,-72.06076
116574218.75,-72.08644
116583984.375,-72.04158
116593750.0,-72.05725
116603515.625,-72.02399
116613281.25,-72.03984
116623046.875,-72.07587
116632812.5,-72.07027
116642578.125,-72.01339
116652343.75,-72.071236
116662109.375,-72.10881
116671875.0,-72.06893
116681640.625,-72.07048
116691406.25,-72.0706
116701171.875,-72.06822
116710937.5,-72.12664
116720703.125,-72.06181
116730468.75,-72.06598
116740234.375,-72.01743
116750000.0,-72.00596
116759765.625,-72.05898
116769531.25,-72.09738
116779296.875,-72.05254
116789062.5,-72.08896
116798828.125,-72.09212
116808593.75,-71.99821
116818359.375,-72.01631
116828125.0,-72.057976
116837890.625,-72.04898
116847656.25,-72.08915
116857421.875,-72.04088
116867187.5,-72.068
116876953.125,-72.03829
116886718.75,-72.03493
116896484.375,-72.064354
116906250.0,-72.04337
116916015.625,-72.028824
116925781.25,-72.075714
116935546.875,-72.1016
116945312.5,-72.06359
116955078.125,-72.04787
116964843.75,-72.10916
116974609.375,-72.07634
116984375.0,-72.01814
116994140.625,-72.01925
117003906.25,-72.0756
117013671.875,-72.046165
117023437.5,-72.01753
117033203.125,-72.01619
117042968.75,-72.098434
117052734.375,-72.05786
117062500.0,-72.02827
117072265.625,-72.00005
117082031.25,-72.02458
117091796.875,-72.08757
117101562.5,-72.043304
117111328.125,-72.037094
117121093.75,-72.06457
117130859.375,-72.06305
117140625.0,-72.06546
117150390.625,-72.05773
117160156.25,-72.07803
117169921.875,-72.01157
117179687.5,-71.99695
117189453.125,-72.04011
117199218.75,-72.09411
117208984.375,-72.09705
117218750.0,-72.05722
117228515.625,-72.03088
117238281.25,-72.030396
117248046.875,-72.05016
117257812.5,-71.99425
117267578.125,-72.03111
117277343.75,-72.09179
117287109.375,-72.05412
117296875.0,-72.04665
117306640.625,-72.05877
117316406.25,-72.09411
117326171.875,-72.08826
117335937.5,-72.02263
117345703.125,-72.03887
117355468.75,-72.08663
117365234.375,-72.08959
117375000.0,-72.05193
117384765.625,-72.04175
117394531.25,-72.08369
117404296.875,-72.10427
117414062.5,-72.036026
117423828.125,-72.03136
117433593.75,-72.06004
117443359.375,-72.03693
117453125.0,-71.97907
117462890.625,-71.996864
117472656.25,-72.10724
117482421.875,-72.12546
117492187.5,-72.07066
117501953.125,-72.028275
117511718.75,-72.00926
117521484.375,-72.04042
117531250.0,-72.07152
117541015.625,-72.07419
117550781.25,-72.036674
117560546.875,-72.028946
117570312.5,-72.06152
117580078.125,-72.0261
117589843.75,-72.093094
117599609.375,-72.138695
117609375.0,-72.10243
117619140.625,-72.08633
117628906.25,-72.065544
117638671.875,-72.04543
117648437.5,-72.019226
117658203.125,-72.01161
117667968.75,-71.995285
117677734.375,-72.009285
117687500.0,-72.07682
117697265.625,-72.07089
117707031.25,-72.056496
117716796.875,-72.08092
117726562.5,-72.06477
117736328.125,-72.03963
117746093.75,-72.011734
117755859.375,-72.0184
117765625.0,-72.04892
117775390.625,-72.103836
117785156.25,-72.0929
117794921.875,-72.08318
117804687.5,-72.06321
117814453.125,-72.07559
117824218.75,-72.08907
117833984.375,-72.0606
117843750.0,-72.03788
117853515.625,-72.06434
117863281.25,-72.020775
117873046.875,-72.008095
117882812.5,-72.051765
117892578.125,-72.07962
117902343.75,-72.101295
117912109.375,-72.06306
117921875.0,-72.0935
117931640.625,-72.028366
117941406.25,-72.04149
117951171.875,-72.05667
117960937.5,-72.05582
117970703.125,-72.07234
117980468.75,-72.07784
117990234.375,-71.98556
