Frequency (Hz),PSD (dBfs)
87000000.0,-70.09957
87000976.5625,-70.3806
87001953.125,-70.43509
87002929.6875,-70.49218
87003906.25,-70.57939
87004882.8125,-70.67554
87005859.375,-70.47352
87006835.9375,-70.477104
87007812.5,-70.53411
87008789.0625,-70.51088
87009765.625,-70.61073
87010742.1875,-70.384766
87011718.75,-70.3723
87012695.3125,-70.62289
87013671.875,-70.64019
87014648.4375,-70.50743
87015625.0,-70.34941
87016601.5625,-70.45724
87017578.125,-70.610405
87018554.6875,-70.47675
87019531.25,-70.31119
87020507.8125,-70.4504
87021484.375,-70.56792
87022460.9375,-70.51765
87023437.5,-70.37975
87024414.0625,-70.2699
87025390.625,-70.44676
87026367.1875,-70.569695
87027343.75,-70.65309
87028320.3125,-70.64904
87029296.875,-70.62944
87030273.4375,-70.50348
87031250.0,-70.46695
87032226.5625,-70.574356
87033203.125,-70.534424
87034179.6875,-70.59216
87035156.25,-70.68756
87036132.8125,-70.5975
87037109.375,-70.67819
87038085.9375,-70.6202
87039062.5,-70.59747
87040039.0625,-70.74371
87041015.625,-70.554794
87041992.1875,-70.49567
87042968.75,-70.684044
87043945.3125,-70.68963
87044921.875,-70.37512
87045898.4375,-70.43889
87046875.0,-70.60319
87047851.5625,-70.54848
87048828.125,-70.57919
87049804.6875,-70.60986
87050781.25,-70.58336
87051757.8125,-70.57848
87052734.375,-70.56305
87053710.9375,-70.460976
87054687.5,-70.45678
87055664.0625,-70.461105
87056640.625,-70.39694
87057617.1875,-70.234535
87058593.75,-70.38828
87059570.3125,-70.43502
87060546.875,-70.19605
87061523.4375,-70.2294
87062500.0,-70.287506
87063476.5625,-70.21237
87064453.125,-70.384094
87065429.6875,-70.3637
87066406.25,-70.43629
87067382.8125,-70.515854
87068359.375,-70.65282
87069335.9375,-70.61221
87070312.5,-70.608635
87071289.0625,-70.54137
87072265.625,-70.363144
87073242.1875,-70.31703
87074218.75,-70.36921
87075195.3125,-70.33139
87076171.875,-70.27306
87077148.4375,-70.36004
87078125.0,-70.51079
87079101.5625,-70.36258
87080078.125,-70.30544
87081054.6875,-70.582344
87082031.25,-70.55552
87083007.8125,-70.58227
87083984.375,-70.63346
87084960.9375,-70.42894
87085937.5,-70.48028
87086914.0625,-70.501335
87087890.625,-70.56657
87088867.1875,-70.53601
87089843.75,-70.504944
87090820.3125,-70.6664
87091796.875,-70.73041
87092773.4375,-70.581635
87093750.0,-70.56018
87094726.5625,-70.65159
87095703.125,-70.40516
87096679.6875,-70.42637
87097656.25,-70.43669
87098632.8125,-70.44587
87099609.375,-70.496056
87100585.9375,-70.65465
87101562.5,-70.52945
87102539.0625,-70.55848
87103515.625,-70.608185
87104492.1875,-70.57626
87105468.75,-70.62518
87106445.3125,-70.60023
87107421.875,-70.57203
87108398.4375,-70.45286
87109375.0,-70.377174
87110351.5625,-70.316536
87111328.125,-70.44564
87112304.6875,-70.476845
87113281.25,-70.586685
87114257.8125,-70.65009
87115234.375,-70.44679
87116210.9375,-70.43138
87117187.5,-70.46576
87118164.0625,-70.354
87119140.625,-70.4338
87120117.1875,-70.594574
87121093.75,-70.465996
87122070.3125,-70.559845
87123046.875,-70.53021
87124023.4375,-70.30547
87125000.0,-70.36057
87125976.5625,-70.58148
87126953.125,-70.46536
87127929.6875,-70.376686
87128906.25,-70.46679
87129882.8125,-70.303696
87130859.375,-70.165985
87131835.9375,-70.094864
87132812.5,-69.80826
87133789.0625,-69.31738
87134765.625,-68.73987
87135742.1875,-68.5196
87136718.75,-68.30822
87137695.3125,-68.282616
87138671.875,-68.254715
87139648.4375,-68.27576
87140625.0,-68.5526
87141601.5625,-68.7743
87142578.125,-68.980675
87143554.6875,-69.20114
87144531.25,-69.18044
87145507.8125,-69.13852
87146484.375,-69.45262
87147460.9375,-69.81225
87148437.5,-70.01565
87149414.0625,-70.320854
87150390.625,-70.28688
87151367.1875,-70.46084
87152343.75,-70.51021
87153320.3125,-70.54521
87154296.875,-70.5481
87155273.4375,-70.536446
87156250.0,-70.50254
87157226.5625,-70.76213
87158203.125,-70.542175
87159179.6875,-70.46527
87160156.25,-70.37669
87161132.8125,-69.52358
87162109.375,-68.411476
87163085.9375,-68.95156
87164062.5,-68.93938
87165039.0625,-69.164276
87166015.625,-69.10939
87166992.1875,-69.07644
87167968.75,-69.32286
87168945.3125,-69.78272
87169921.875,-69.925125
87170898.4375,-69.841064
87171875.0,-69.76851
87172851.5625,-69.85919
87173828.125,-70.08882
87174804.6875,-69.95345
87175781.25,-69.805435
87176757.8125,-69.77076
87177734.375,-69.67521
87178710.9375,-70.09534
87179687.5,-70.40681
87180664.0625,-70.48163
87181640.625,-70.44083
87182617.1875,-70.59035
87183593.75,-70.52537
87184570.3125,-70.47265
87185546.875,-70.52208
87186523.4375,-70.53434
87187500.0,-70.401184
87188476.5625,-70.382706
87189453.125,-70.40681
87190429.6875,-70.41403
87191406.25,-70.37931
87192382.8125,-70.43333
87193359.375,-70.485886
87194335.9375,-70.60434
87195312.5,-70.62067
87196289.0625,-70.37837
87197265.625,-70.41156
87198242.1875,-70.46887
87199218.75,-64.95128
87200195.3125,-62.14064
87201171.875,-67.88781
87202148.4375,-70.13938
87203125.0,-70.25657
87204101.5625,-70.25679
87205078.125,-70.24179
87206054.6875,-70.340904
87207031.25,-70.421936
87208007.8125,-70.43321
87208984.375,-70.57159
87209960.9375,-70.54346
87210937.5,-70.58639
87211914.0625,-70.64608
87212890.625,-70.52455
87213867.1875,-70.33591
87214843.75,-70.46791
87215820.3125,-70.66457
87216796.875,-70.57237
87217773.4375,-70.516136
87218750.0,-70.43826
87219726.5625,-70.54376
87220703.125,-70.53384
87221679.6875,-70.43777
87222656.25,-70.46522
87223632.8125,-70.36899
87224609.375,-70.051605
87225585.9375,-69.44957
87226562.5,-68.11369
87227539.0625,-66.30709
87228515.625,-64.08942
87229492.1875,-62.35369
87230468.75,-60.755657
87231445.3125,-60.66414
87232421.875,-62.798782
87233398.4375,-65.417015
87234375.0,-67.630005
87235351.5625,-68.77295
87236328.125,-69.02933
87237304.6875,-69.67418
87238281.25,-70.259636
87239257.8125,-70.43547
87240234.375,-70.35138
87241210.9375,-70.28619
87242187.5,-70.33345
87243164.0625,-70.37126
87244140.625,-70.34417
87245117.1875,-70.36384
87246093.75,-70.3185
87247070.3125,-70.332054
87248046.875,-70.20741
87249023.4375,-70.20884
87250000.0,-70.28119
87250976.5625,-70.275085
87251953.125,-70.305336
87252929.6875,-70.25188
87253906.25,-70.35062
87254882.8125,-70.303734
87255859.375,-70.18542
87256835.9375,-70.1854
87257812.5,-70.37952
87258789.0625,-70.38107
87259765.625,-70.38176
87260742.1875,-70.36215
87261718.75,-70.17871
87262695.3125,-70.140945
87263671.875,-70.27788
87264648.4375,-70.29097
87265625.0,-70.335396
87266601.5625,-70.363335
87267578.125,-70.368484
87268554.6875,-70.432106
87269531.25,-70.34066
87270507.8125,-70.47771
87271484.375,-70.40331
87272460.9375,-70.441605
87273437.5,-70.484856
87274414.0625,-70.5507
87275390.625,-70.631805
87276367.1875,-70.50118
87277343.75,-70.577156
87278320.3125,-70.64155
87279296.875,-70.67252
87280273.4375,-70.54628
87281250.0,-70.55089
87282226.5625,-70.52863
87283203.125,-70.559166
87284179.6875,-70.36918
87285156.25,-70.24902
87286132.8125,-70.211174
87287109.375,-70.19064
87288085.9375,-70.25535
87289062.5,-69.840096
87290039.0625,-69.872314
87291015.625,-70.426506
87291992.1875,-70.41078
87292968.75,-69.958565
87293945.3125,-70.07446
87294921.875,-70.46451
87295898.4375,-70.38378
87296875.0,-70.43117
87297851.5625,-70.39934
87298828.125,-70.42731
87299804.6875,-70.49137
87300781.25,-70.576416
87301757.8125,-70.765564
87302734.375,-70.58444
87303710.9375,-70.58812
87304687.5,-70.58171
87305664.0625,-70.58654
87306640.625,-70.54679
87307617.1875,-70.60383
87308593.75,-70.51695
87309570.3125,-70.42184
87310546.875,-70.60579
87311523.4375,-70.62399
87312500.0,-70.4778
87313476.5625,-70.40057
87314453.125,-70.503265
87315429.6875,-70.427185
87316406.25,-70.46418
87317382.8125,-70.467155
87318359.375,-70.3929
87319335.9375,-70.468704
87320312.5,-70.43045
87321289.0625,-70.56138
87322265.625,-70.59431
87323242.1875,-70.54271
87324218.75,-70.56027
87325195.3125,-70.57184
87326171.875,-70.60187
87327148.4375,-70.512634
87328125.0,-70.68025
87329101.5625,-70.60281
87330078.125,-70.414635
87331054.6875,-70.45373
87332031.25,-70.47703
87333007.8125,-70.655525
87333984.375,-70.58115
87334960.9375,-70.58929
87335937.5,-70.611336
87336914.0625,-70.60874
87337890.625,-70.54304
87338867.1875,-70.51892
87339843.75,-70.535065
87340820.3125,-70.60338
87341796.875,-70.61533
87342773.4375,-70.51026
87343750.0,-70.49974
87344726.5625,-70.49107
87345703.125,-70.32955
87346679.6875,-70.48941
87347656.25,-70.55934
87348632.8125,-70.642654
87349609.375,-70.61645
87350585.9375,-70.65232
87351562.5,-70.65429
87352539.0625,-70.58449
87353515.625,-70.52951
87354492.1875,-70.42242
87355468.75,-70.421844
87356445.3125,-70.470634
87357421.875,-70.59807
87358398.4375,-70.757965
87359375.0,-70.70204
87360351.5625,-70.5931
87361328.125,-70.583206
87362304.6875,-70.5002
87363281.25,-70.68206
87364257.8125,-70.64341
87365234.375,-70.60207
87366210.9375,-70.62699
87367187.5,-70.411026
87368164.0625,-70.327385
87369140.625,-70.408264
87370117.1875,-70.3905
87371093.75,-70.3247
87372070.3125,-70.329865
87373046.875,-70.35262
87374023.4375,-70.48892
87375000.0,-70.60304
87375976.5625,-70.66749
87376953.125,-70.726364
87377929.6875,-70.60033
87378906.25,-70.449684
87379882.8125,-70.39501
87380859.375,-70.56083
87381835.9375,-70.68843
87382812.5,-70.69376
87383789.0625,-70.63802
87384765.625,-70.70152
87385742.1875,-70.674675
87386718.75,-70.81304
87387695.3125,-70.8853
87388671.875,-70.74979
87389648.4375,-70.68475
87390625.0,-70.54262
87391601.5625,-70.566246
87392578.125,-70.61518
87393554.6875,-70.51914
87394531.25,-70.50767
87395507.8125,-70.47875
87396484.375,-70.47381
87397460.9375,-70.28464
87398437.5,-70.19013
87399414.0625,-70.21248
87400390.625,-70.204765
87401367.1875,-70.32707
87402343.75,-70.2727
87403320.3125,-70.43147
87404296.875,-70.52576
87405273.4375,-70.45293
87406250.0,-70.545876
87407226.5625,-70.551704
87408203.125,-70.52232
87409179.6875,-70.654076
87410156.25,-70.59381
87411132.8125,-70.453545
87412109.375,-70.55936
87413085.9375,-70.51699
87414062.5,-70.5505
87415039.0625,-70.619156
87416015.625,-70.4837
87416992.1875,-70.614975
87417968.75,-70.63122
87418945.3125,-70.506714
87419921.875,-70.42108
87420898.4375,-70.53717
87421875.0,-70.58328
87422851.5625,-70.53791
87423828.125,-70.49395
87424804.6875,-70.54186
87425781.25,-70.60474
87426757.8125,-70.669624
87427734.375,-70.6994
87428710.9375,-70.74222
87429687.5,-70.72837
87430664.0625,-70.58115
87431640.625,-70.61803
87432617.1875,-70.62077
87433593.75,-70.659035
87434570.3125,-70.74599
87435546.875,-70.55592
87436523.4375,-70.42894
87437500.0,-70.473404
87438476.5625,-70.50139
87439453.125,-70.629105
87440429.6875,-70.62306
87441406.25,-70.61111
87442382.8125,-70.68364
87443359.375,-70.56338
87444335.9375,-70.493195
87445312.5,-70.47615
87446289.0625,-70.535446
87447265.625,-70.481804
87448242.1875,-70.65881
87449218.75,-70.79663
87450195.3125,-70.52675
87451171.875,-70.396576
87452148.4375,-70.32005
87453125.0,-70.430664
87454101.5625,-70.67671
87455078.125,-70.71251
87456054.6875,-70.570015
87457031.25,-70.65268
87458007.8125,-70.462845
87458984.375,-70.350525
87459960.9375,-70.4293
87460937.5,-70.43985
87461914.0625,-70.44008
87462890.625,-70.48051
87463867.1875,-70.52799
87464843.75,-70.72328
87465820.3125,-70.56637
87466796.875,-70.545074
87467773.4375,-70.630806
87468750.0,-70.70949
87469726.5625,-70.670555
87470703.125,-70.72677
87471679.6875,-70.62176
87472656.25,-70.56306
87473632.8125,-70.41868
87474609.375,-70.510284
87475585.9375,-70.74991
87476562.5,-70.52024
87477539.0625,-70.551186
87478515.625,-70.54575
87479492.1875,-70.43634
87480468.75,-70.51886
87481445.3125,-70.63435
87482421.875,-70.52849
87483398.4375,-70.51324
87484375.0,-70.61458
87485351.5625,-70.615265
87486328.125,-70.50366
87487304.6875,-70.54178
87488281.25,-70.69301
87489257.8125,-70.678085
87490234.375,-70.42466
87491210.9375,-70.33763
87492187.5,-70.47162
87493164.0625,-70.52319
87494140.625,-70.583145
87495117.1875,-70.60328
87496093.75,-70.5642
87497070.3125,-70.844666
87498046.875,-70.67066
87499023.4375,-70.34022
87500000.0,-69.98732
87500976.5625,-70.50216
87501953.125,-70.53437
87502929.6875,-70.50136
87503906.25,-70.63249
87504882.8125,-70.48507
87505859.375,-70.40173
87506835.9375,-70.452446
87507812.5,-70.44313
87508789.0625,-70.62219
87509765.625,-70.52629
87510742.1875,-70.472916
87511718.75,-70.63218
87512695.3125,-70.41782
87513671.875,-70.58876
87514648.4375,-70.65345
87515625.0,-70.628845
87516601.5625,-70.63277
87517578.125,-70.67786
87518554.6875,-70.698715
87519531.25,-70.70677
87520507.8125,-70.6832
87521484.375,-70.42657
87522460.9375,-70.64586
87523437.5,-70.74817
87524414.0625,-70.58333
87525390.625,-70.65312
87526367.1875,-70.50736
87527343.75,-70.52725
87528320.3125,-70.682304
87529296.875,-70.48094
87530273.4375,-70.41845
87531250.0,-70.42998
87532226.5625,-70.133835
87533203.125,-70.0376
87534179.6875,-70.072784
87535156.25,-69.946594
87536132.8125,-69.874176
87537109.375,-69.7243
87538085.9375,-69.54139
87539062.5,-69.68586
87540039.0625,-69.98244
87541015.625,-70.11916
87541992.1875,-70.16808
87542968.75,-70.27026
87543945.3125,-70.58369
87544921.875,-70.772644
87545898.4375,-70.54435
87546875.0,-70.60395
87547851.5625,-70.70115
87548828.125,-70.75192
87549804.6875,-70.58262
87550781.25,-70.622185
87551757.8125,-70.76535
87552734.375,-70.61778
87553710.9375,-70.439766
87554687.5,-70.43249
87555664.0625,-70.63349
87556640.625,-70.57807
87557617.1875,-70.74845
87558593.75,-70.72068
87559570.3125,-70.62295
87560546.875,-70.73215
87561523.4375,-70.62652
87562500.0,-70.49168
87563476.5625,-70.41616
87564453.125,-70.443085
87565429.6875,-70.36059
87566406.25,-70.37817
87567382.8125,-70.08423
87568359.375,-69.96918
87569335.9375,-69.958466
87570312.5,-70.17894
87571289.0625,-70.255775
87572265.625,-70.36882
87573242.1875,-70.50046
87574218.75,-70.63531
87575195.3125,-70.67905
87576171.875,-70.591194
87577148.4375,-70.732666
87578125.0,-70.53119
87579101.5625,-70.58313
87580078.125,-70.76462
87581054.6875,-70.60052
87582031.25,-70.564125
87583007.8125,-70.53673
87583984.375,-70.57006
87584960.9375,-70.47822
87585937.5,-70.536964
87586914.0625,-70.7437
87587890.625,-70.75325
87588867.1875,-70.743805
87589843.75,-70.677765
87590820.3125,-70.39868
87591796.875,-70.32723
87592773.4375,-70.283394
87593750.0,-70.10885
87594726.5625,-69.828575
87595703.125,-69.538994
87596679.6875,-69.121124
87597656.25,-68.729095
87598632.8125,-68.532196
87599609.375,-68.45726
87600585.9375,-68.38456
87601562.5,-68.47386
87602539.0625,-68.5467
87603515.625,-68.56938
87604492.1875,-69.04324
87605468.75,-69.324646
87606445.3125,-69.44791
87607421.875,-69.84161
87608398.4375,-70.267075
87609375.0,-70.42462
87610351.5625,-70.5613
87611328.125,-70.45278
87612304.6875,-70.57213
87613281.25,-70.57877
87614257.8125,-70.59023
87615234.375,-70.638664
87616210.9375,-70.69714
87617187.5,-70.54923
87618164.0625,-70.548904
87619140.625,-70.43523
87620117.1875,-70.073845
87621093.75,-69.50824
87622070.3125,-68.62497
87623046.875,-67.48524
87624023.4375,-66.22569
87625000.0,-65.170715
87625976.5625,-64.85368
87626953.125,-64.855
87627929.6875,-64.18085
87628906.25,-63.80538
87629882.8125,-63.89381
87630859.375,-63.989395
87631835.9375,-64.252846
87632812.5,-64.27953
87633789.0625,-64.57165
87634765.625,-65.97922
87635742.1875,-67.42019
87636718.75,-68.38373
87637695.3125,-69.19081
87638671.875,-69.78423
87639648.4375,-70.158165
87640625.0,-70.431946
87641601.5625,-70.54415
87642578.125,-70.62458
87643554.6875,-70.47313
87644531.25,-70.63941
87645507.8125,-70.74519
87646484.375,-70.62367
87647460.9375,-70.72461
87648437.5,-70.708664
87649414.0625,-70.53151
87650390.625,-70.53173
87651367.1875,-70.67027
87652343.75,-70.73201
87653320.3125,-70.7437
87654296.875,-70.87844
87655273.4375,-70.8092
87656250.0,-70.63843
87657226.5625,-70.412155
87658203.125,-70.40665
87659179.6875,-70.41882
87660156.25,-70.340324
87661132.8125,-70.43317
87662109.375,-70.50439
87663085.9375,-70.611534
87664062.5,-70.67028
87665039.0625,-70.635735
87666015.625,-70.5134
87666992.1875,-70.71808
87667968.75,-70.67947
87668945.3125,-70.7566
87669921.875,-70.86575
87670898.4375,-70.72906
87671875.0,-70.71404
87672851.5625,-70.777725
87673828.125,-70.70037
87674804.6875,-70.55199
87675781.25,-70.64815
87676757.8125,-70.66499
87677734.375,-70.674576
87678710.9375,-70.67144
87679687.5,-70.75373
87680664.0625,-70.49233
87681640.625,-70.50819
87682617.1875,-70.53682
87683593.75,-70.50586
87684570.3125,-70.56458
87685546.875,-70.83385
87686523.4375,-70.67719
87687500.0,-70.57473
87688476.5625,-70.6093
87689453.125,-70.555984
87690429.6875,-70.59535
87691406.25,-70.52994
87692382.8125,-70.725624
87693359.375,-70.717865
87694335.9375,-70.75737
87695312.5,-70.88675
87696289.0625,-70.68288
87697265.625,-70.61473
87698242.1875,-70.68028
87699218.75,-70.66161
87700195.3125,-70.860146
87701171.875,-70.844345
87702148.4375,-70.83714
87703125.0,-70.76819
87704101.5625,-70.70461
87705078.125,-70.5968
87706054.6875,-70.72553
87707031.25,-70.83995
87708007.8125,-70.87706
87708984.375,-70.78722
87709960.9375,-70.802826
87710937.5,-70.66857
87711914.0625,-70.691925
87712890.625,-70.79139
87713867.1875,-70.85745
87714843.75,-70.89334
87715820.3125,-70.744606
87716796.875,-70.633804
87717773.4375,-70.540436
87718750.0,-70.54055
87719726.5625,-70.64296
87720703.125,-70.5943
87721679.6875,-70.73665
87722656.25,-70.976555
87723632.8125,-70.88853
87724609.375,-70.77135
87725585.9375,-70.735634
87726562.5,-70.68447
87727539.0625,-70.85805
87728515.625,-70.72859
87729492.1875,-70.78553
87730468.75,-70.821655
87731445.3125,-70.730225
87732421.875,-70.68399
87733398.4375,-70.792206
87734375.0,-70.70189
87735351.5625,-70.65766
87736328.125,-70.5852
87737304.6875,-70.61261
87738281.25,-70.59277
87739257.8125,-70.55482
87740234.375,-70.62926
87741210.9375,-70.79059
87742187.5,-70.70499
87743164.0625,-70.65998
87744140.625,-70.58299
87745117.1875,-70.59746
87746093.75,-70.714966
87747070.3125,-70.72366
87748046.875,-70.633865
87749023.4375,-70.58504
87750000.0,-70.486115
87750976.5625,-70.627426
87751953.125,-70.72613
87752929.6875,-70.60596
87753906.25,-70.75194
87754882.8125,-70.68207
87755859.375,-70.659424
87756835.9375,-70.56028
87757812.5,-70.583466
87758789.0625,-70.752464
87759765.625,-70.93319
87760742.1875,-70.78893
87761718.75,-70.75097
87762695.3125,-70.665695
87763671.875,-70.57184
87764648.4375,-70.63438
87765625.0,-70.798096
87766601.5625,-70.73118
87767578.125,-70.73978
87768554.6875,-70.69903
87769531.25,-70.61065
87770507.8125,-70.69541
87771484.375,-70.6552
87772460.9375,-70.84598
87773437.5,-70.67143
87774414.0625,-70.59158
87775390.625,-70.63264
87776367.1875,-70.63419
87777343.75,-70.57921
87778320.3125,-70.56815
87779296.875,-70.57887
87780273.4375,-70.6846
87781250.0,-70.6418
87782226.5625,-70.68636
87783203.125,-70.73549
87784179.6875,-70.78773
87785156.25,-70.78888
87786132.8125,-70.7911
87787109.375,-70.81043
87788085.9375,-70.82622
87789062.5,-70.68059
87790039.0625,-70.53798
87791015.625,-70.52029
87791992.1875,-70.72309
87792968.75,-70.78994
87793945.3125,-70.5656
87794921.875,-70.58725
87795898.4375,-70.60751
87796875.0,-70.50162
87797851.5625,-70.53433
87798828.125,-70.67236
87799804.6875,-70.621544
87800781.25,-70.55035
87801757.8125,-70.36315
87802734.375,-70.52664
87803710.9375,-70.56453
87804687.5,-70.480034
87805664.0625,-70.51882
87806640.625,-70.67363
87807617.1875,-70.64354
87808593.75,-70.592026
87809570.3125,-70.64697
87810546.875,-70.80586
87811523.4375,-70.91753
87812500.0,-70.77445
87813476.5625,-70.672615
87814453.125,-70.73024
87815429.6875,-70.73143
87816406.25,-70.84423
87817382.8125,-70.825
87818359.375,-70.8973
87819335.9375,-70.94906
87820312.5,-70.79779
87821289.0625,-70.7022
87822265.625,-70.71972
87823242.1875,-70.73069
87824218.75,-70.7069
87825195.3125,-70.653465
87826171.875,-70.61081
87827148.4375,-70.50284
87828125.0,-69.94002
87829101.5625,-69.31106
87830078.125,-68.89845
87831054.6875,-68.713455
87832031.25,-69.017
87833007.8125,-69.57355
87833984.375,-70.210045
87834960.9375,-70.81055
87835937.5,-70.839676
87836914.0625,-70.69078
87837890.625,-70.723785
87838867.1875,-70.72043
87839843.75,-70.74617
87840820.3125,-70.59791
87841796.875,-70.680984
87842773.4375,-70.854004
87843750.0,-70.84106
87844726.5625,-70.77623
87845703.125,-70.62951
87846679.6875,-70.59468
87847656.25,-70.70805
87848632.8125,-70.78881
87849609.375,-70.86143
87850585.9375,-70.883606
87851562.5,-70.86287
87852539.0625,-70.871956
87853515.625,-70.864876
87854492.1875,-70.83164
87855468.75,-70.74217
87856445.3125,-70.74956
87857421.875,-70.76928
87858398.4375,-70.82163
87859375.0,-70.80592
87860351.5625,-70.86653
87861328.125,-70.668365
87862304.6875,-70.63264
87863281.25,-70.78038
87864257.8125,-70.80853
87865234.375,-70.8439
87866210.9375,-70.63348
87867187.5,-70.65955
87868164.0625,-70.76454
87869140.625,-70.72799
87870117.1875,-70.88132
87871093.75,-70.80484
87872070.3125,-70.75767
87873046.875,-70.67936
87874023.4375,-70.599815
87875000.0,-70.705475
87875976.5625,-70.70616
87876953.125,-70.75452
87877929.6875,-70.726166
87878906.25,-70.80602
87879882.8125,-70.51353
87880859.375,-70.71632
87881835.9375,-70.78722
87882812.5,-70.644165
87883789.0625,-70.690384
87884765.625,-70.79953
87885742.1875,-70.78427
87886718.75,-70.59861
87887695.3125,-70.73711
87888671.875,-70.66309
87889648.4375,-70.60657
87890625.0,-70.769806
87891601.5625,-70.76237
87892578.125,-70.78465
87893554.6875,-70.70851
87894531.25,-70.668434
87895507.8125,-70.71728
87896484.375,-70.7617
87897460.9375,-70.73556
87898437.5,-70.772896
87899414.0625,-70.814545
87900390.625,-70.798134
87901367.1875,-70.8039
87902343.75,-70.75536
87903320.3125,-70.71342
87904296.875,-70.7981
87905273.4375,-70.89486
87906250.0,-70.8773
87907226.5625,-70.67165
87908203.125,-70.77761
87909179.6875,-70.89197
87910156.25,-70.77613
87911132.8125,-70.81238
87912109.375,-70.90106
87913085.9375,-70.855316
87914062.5,-70.76477
87915039.0625,-70.679886
87916015.625,-70.534325
87916992.1875,-70.54033
87917968.75,-70.676765
87918945.3125,-70.71012
87919921.875,-70.695305
87920898.4375,-70.68501
87921875.0,-70.71803
87922851.5625,-70.73892
87923828.125,-70.80737
87924804.6875,-70.77478
87925781.25,-70.63135
87926757.8125,-70.62722
87927734.375,-70.68268
87928710.9375,-70.715096
87929687.5,-70.69449
87930664.0625,-70.618164
87931640.625,-70.65551
87932617.1875,-70.59069
87933593.75,-70.61528
87934570.3125,-70.61122
87935546.875,-70.64877
87936523.4375,-70.503105
87937500.0,-70.44807
87938476.5625,-70.438095
87939453.125,-70.46002
87940429.6875,-70.59004
87941406.25,-70.69927
87942382.8125,-70.61568
87943359.375,-70.49451
87944335.9375,-70.420296
87945312.5,-70.60431
87946289.0625,-70.68806
87947265.625,-70.62966
87948242.1875,-70.5708
87949218.75,-70.75612
87950195.3125,-70.69884
87951171.875,-70.68349
87952148.4375,-70.699715
87953125.0,-70.71988
87954101.5625,-70.6317
87955078.125,-70.853966
87956054.6875,-70.75395
87957031.25,-70.66833
87958007.8125,-70.66691
87958984.375,-70.7204
87959960.9375,-70.6965
87960937.5,-70.682335
87961914.0625,-70.72302
87962890.625,-70.56041
87963867.1875,-70.55238
87964843.75,-70.70529
87965820.3125,-70.671005
87966796.875,-70.623505
87967773.4375,-70.53058
87968750.0,-70.33514
87969726.5625,-70.32939
87970703.125,-70.54778
87971679.6875,-70.60732
87972656.25,-70.691536
87973632.8125,-70.51337
87974609.375,-70.55739
87975585.9375,-70.58028
87976562.5,-70.6504
87977539.0625,-70.65883
87978515.625,-70.706345
87979492.1875,-70.645706
87980468.75,-70.57852
87981445.3125,-70.586945
87982421.875,-70.561005
87983398.4375,-70.42994
87984375.0,-70.51729
87985351.5625,-70.60509
87986328.125,-70.62614
87987304.6875,-70.50307
87988281.25,-70.48552
87989257.8125,-70.39759
87990234.375,-70.50399
87991210.9375,-70.4532
87992187.5,-70.33729
87993164.0625,-70.28395
87994140.625,-70.35285
87995117.1875,-70.381516
87996093.75,-70.092384
87997070.3125,-69.83463
87998046.875,-69.14231
87999023.4375,-69.22612
88000000.0,-73.558075
88000976.5625,-69.346985
88001953.125,-69.28493
88002929.6875,-69.91606
88003906.25,-70.13726
88004882.8125,-70.27651
88005859.375,-70.33627
88006835.9375,-70.32814
88007812.5,-70.40811
88008789.0625,-70.547935
88009765.625,-70.451256
88010742.1875,-70.39408
88011718.75,-70.47577
88012695.3125,-70.499214
88013671.875,-70.463196
88014648.4375,-70.444496
88015625.0,-70.51685
88016601.5625,-70.413765
88017578.125,-70.57716
88018554.6875,-70.609695
88019531.25,-70.5923
88020507.8125,-70.574356
88021484.375,-70.553116
88022460.9375,-70.48995
88023437.5,-70.64312
88024414.0625,-70.57747
88025390.625,-70.66379
88026367.1875,-70.53568
88027343.75,-70.55444
88028320.3125,-70.541504
88029296.875,-70.57622
88030273.4375,-70.47998
88031250.0,-70.29769
88032226.5625,-70.3714
88033203.125,-70.50403
88034179.6875,-70.52968
88035156.25,-70.68614
88036132.8125,-70.70361
88037109.375,-70.64997
88038085.9375,-70.70201
88039062.5,-70.81437
88040039.0625,-70.60545
88041015.625,-70.6362
88041992.1875,-70.597115
88042968.75,-70.66197
88043945.3125,-70.64707
88044921.875,-70.654236
88045898.4375,-70.45936
88046875.0,-70.63636
88047851.5625,-70.63073
88048828.125,-70.67409
88049804.6875,-70.774216
88050781.25,-70.84894
88051757.8125,-70.61827
88052734.375,-70.6875
88053710.9375,-70.62772
88054687.5,-70.65129
88055664.0625,-70.54783
88056640.625,-70.532684
88057617.1875,-70.59696
88058593.75,-70.56777
88059570.3125,-70.769226
88060546.875,-70.70178
88061523.4375,-70.65739
88062500.0,-70.7258
88063476.5625,-70.56124
88064453.125,-70.611496
88065429.6875,-70.64644
88066406.25,-70.59207
88067382.8125,-70.664894
88068359.375,-70.76617
88069335.9375,-70.53756
88070312.5,-70.43781
88071289.0625,-70.53049
88072265.625,-70.61742
88073242.1875,-70.7594
88074218.75,-70.87243
88075195.3125,-70.82345
88076171.875,-70.8566
88077148.4375,-70.65457
88078125.0,-70.590485
88079101.5625,-70.61911
88080078.125,-70.64544
88081054.6875,-70.67241
88082031.25,-70.590065
88083007.8125,-70.58632
88083984.375,-70.64801
88084960.9375,-70.66537
88085937.5,-70.74341
88086914.0625,-70.671364
88087890.625,-70.76166
88088867.1875,-70.634254
88089843.75,-70.59071
88090820.3125,-70.771675
88091796.875,-70.63653
88092773.4375,-70.68574
88093750.0,-70.95963
88094726.5625,-71.05746
88095703.125,-70.855896
88096679.6875,-70.71699
88097656.25,-70.60625
88098632.8125,-70.74962
88099609.375,-71.014435
88100585.9375,-70.92997
88101562.5,-70.990486
88102539.0625,-70.88962
88103515.625,-70.785416
88104492.1875,-70.86976
88105468.75,-70.832016
88106445.3125,-70.70181
88107421.875,-70.788185
88108398.4375,-70.695045
88109375.0,-70.76224
88110351.5625,-70.68963
88111328.125,-70.65054
88112304.6875,-70.51186
88113281.25,-70.39095
88114257.8125,-70.715836
88115234.375,-70.846695
88116210.9375,-70.769165
88117187.5,-70.869995
88118164.0625,-70.70591
88119140.625,-70.542625
88120117.1875,-70.498
88121093.75,-70.87874
88122070.3125,-70.79915
88123046.875,-70.727936
88124023.4375,-70.678955
88125000.0,-70.585655
88125976.5625,-70.57614
88126953.125,-70.80169
88127929.6875,-70.826996
88128906.25,-70.66462
88129882.8125,-70.56889
88130859.375,-70.693756
88131835.9375,-70.64372
88132812.5,-70.64595
88133789.0625,-70.656425
88134765.625,-70.68594
88135742.1875,-70.63953
88136718.75,-70.617676
88137695.3125,-70.3902
88138671.875,-70.42425
88139648.4375,-70.77612
88140625.0,-70.89505
88141601.5625,-70.761566
88142578.125,-70.85131
88143554.6875,-70.87053
88144531.25,-70.77809
88145507.8125,-70.805725
88146484.375,-70.719086
88147460.9375,-70.70383
88148437.5,-70.806885
88149414.0625,-70.7827
88150390.625,-70.88685
88151367.1875,-70.86735
88152343.75,-70.842896
88153320.3125,-70.73239
88154296.875,-70.77485
88155273.4375,-70.991196
88156250.0,-71.01289
88157226.5625,-70.76366
88158203.125,-70.62808
88159179.6875,-70.623825
88160156.25,-70.757416
88161132.8125,-70.59186
88162109.375,-70.582985
88163085.9375,-70.59373
88164062.5,-70.44592
88165039.0625,-69.77698
88166015.625,-68.0011
88166992.1875,-66.366165
88167968.75,-64.98074
88168945.3125,-64.42628
88169921.875,-64.771545
88170898.4375,-65.8689
88171875.0,-67.82808
88172851.5625,-69.43088
88173828.125,-70.19767
88174804.6875,-70.56089
88175781.25,-70.59315
88176757.8125,-70.7106
88177734.375,-70.74287
88178710.9375,-70.665405
88179687.5,-70.80095
88180664.0625,-70.75082
88181640.625,-70.73037
88182617.1875,-70.825226
88183593.75,-70.8232
88184570.3125,-70.752594
88185546.875,-70.84071
88186523.4375,-70.672935
88187500.0,-70.70977
88188476.5625,-70.65541
88189453.125,-70.73196
88190429.6875,-70.65236
88191406.25,-70.6427
88192382.8125,-70.71324
88193359.375,-70.59512
88194335.9375,-70.56566
88195312.5,-70.56275
88196289.0625,-70.54265
88197265.625,-70.568535
88198242.1875,-70.5169
88199218.75,-70.441925
88200195.3125,-70.42616
88201171.875,-70.648636
88202148.4375,-70.57118
88203125.0,-70.53425
88204101.5625,-70.59327
88205078.125,-70.508606
88206054.6875,-70.55305
88207031.25,-70.61163
88208007.8125,-70.761925
88208984.375,-70.71877
88209960.9375,-70.63821
88210937.5,-70.806145
88211914.0625,-70.77659
88212890.625,-70.72136
88213867.1875,-70.78448
88214843.75,-70.77197
88215820.3125,-70.81091
88216796.875,-70.76947
88217773.4375,-70.607285
88218750.0,-70.732376
88219726.5625,-70.70586
88220703.125,-70.55002
88221679.6875,-70.66746
88222656.25,-70.74593
88223632.8125,-70.7983
88224609.375,-70.71244
88225585.9375,-70.72719
88226562.5,-70.862595
88227539.0625,-70.82895
88228515.625,-70.63671
88229492.1875,-70.61783
88230468.75,-70.492035
88231445.3125,-70.57961
88232421.875,-70.53289
88233398.4375,-70.60721
88234375.0,-70.71538
88235351.5625,-70.59056
88236328.125,-70.51115
88237304.6875,-70.598495
88238281.25,-70.666115
88239257.8125,-70.66071
88240234.375,-70.79224
88241210.9375,-70.66026
88242187.5,-70.61058
88243164.0625,-70.67123
88244140.625,-70.68147
88245117.1875,-70.7334
88246093.75,-70.65384
88247070.3125,-70.61586
88248046.875,-70.702446
88249023.4375,-70.61318
88250000.0,-70.4787
88250976.5625,-70.59137
88251953.125,-70.62204
88252929.6875,-70.748116
88253906.25,-70.729225
88254882.8125,-70.60521
88255859.375,-70.65656
88256835.9375,-70.79118
88257812.5,-70.7674
88258789.0625,-70.840294
88259765.625,-70.686005
88260742.1875,-70.44287
88261718.75,-70.455
88262695.3125,-70.59938
88263671.875,-70.71139
88264648.4375,-70.729645
88265625.0,-70.67129
88266601.5625,-70.69565
88267578.125,-70.54555
88268554.6875,-70.60967
88269531.25,-70.67618
88270507.8125,-70.70992
88271484.375,-70.73263
88272460.9375,-70.67625
88273437.5,-70.5659
88274414.0625,-70.64412
88275390.625,-70.729675
88276367.1875,-70.73853
88277343.75,-70.730194
88278320.3125,-70.72447
88279296.875,-70.53958
88280273.4375,-70.66955
88281250.0,-70.69121
88282226.5625,-70.69924
88283203.125,-70.705666
88284179.6875,-70.695335
88285156.25,-70.851395
88286132.8125,-70.73511
88287109.375,-70.534775
88288085.9375,-70.63224
88289062.5,-70.77162
88290039.0625,-70.76518
88291015.625,-70.69989
88291992.1875,-70.824455
88292968.75,-70.74039
88293945.3125,-70.630615
88294921.875,-70.52463
88295898.4375,-70.61676
88296875.0,-70.78109
88297851.5625,-70.78589
88298828.125,-70.78523
88299804.6875,-70.7516
88300781.25,-70.476135
88301757.8125,-70.51851
88302734.375,-70.57559
88303710.9375,-70.60339
88304687.5,-70.890274
88305664.0625,-70.76076
88306640.625,-70.59499
88307617.1875,-70.57695
88308593.75,-70.54156
88309570.3125,-70.62618
88310546.875,-70.60164
88311523.4375,-70.535645
88312500.0,-70.471436
88313476.5625,-70.51875
88314453.125,-70.70562
88315429.6875,-70.59264
88316406.25,-70.59332
88317382.8125,-70.60739
88318359.375,-70.497314
88319335.9375,-70.54622
88320312.5,-70.82367
88321289.0625,-70.670235
88322265.625,-70.68708
88323242.1875,-70.72264
88324218.75,-70.594604
88325195.3125,-70.67531
88326171.875,-70.78699
88327148.4375,-70.88853
88328125.0,-70.83619
88329101.5625,-70.62541
88330078.125,-70.610855
88331054.6875,-70.7279
88332031.25,-70.79695
88333007.8125,-70.74376
88333984.375,-70.67908
88334960.9375,-70.63354
88335937.5,-70.74047
88336914.0625,-70.77577
88337890.625,-70.56738
88338867.1875,-70.55757
88339843.75,-70.526245
88340820.3125,-70.53151
88341796.875,-70.41878
88342773.4375,-70.53205
88343750.0,-70.64374
88344726.5625,-70.59383
88345703.125,-70.57767
88346679.6875,-70.506424
88347656.25,-70.56993
88348632.8125,-70.59041
88349609.375,-70.70744
88350585.9375,-70.67111
88351562.5,-70.66911
88352539.0625,-70.61545
88353515.625,-70.54159
88354492.1875,-70.53386
88355468.75,-70.62107
88356445.3125,-70.57299
88357421.875,-70.38908
88358398.4375,-70.245735
88359375.0,-69.61145
88360351.5625,-68.50067
88361328.125,-66.90362
88362304.6875,-65.54547
88363281.25,-64.23006
88364257.8125,-62.54156
88365234.375,-60.203854
88366210.9375,-58.49324
88367187.5,-58.096962
88368164.0625,-57.915363
88369140.625,-57.62632
88370117.1875,-57.579506
88371093.75,-57.333458
88372070.3125,-57.778896
88373046.875,-58.65072
88374023.4375,-58.73354
88375000.0,-59.138153
88375976.5625,-60.494736
88376953.125,-62.139526
88377929.6875,-63.927315
88378906.25,-66.397705
88379882.8125,-68.36823
88380859.375,-69.513054
88381835.9375,-70.13948
88382812.5,-70.49222
88383789.0625,-70.79375
88384765.625,-70.61184
88385742.1875,-70.46899
88386718.75,-70.481865
88387695.3125,-70.49899
88388671.875,-70.45003
88389648.4375,-70.541336
88390625.0,-70.32201
88391601.5625,-70.191
88392578.125,-70.03244
88393554.6875,-69.65468
88394531.25,-69.35379
88395507.8125,-69.051315
88396484.375,-68.5373
88397460.9375,-68.345215
88398437.5,-68.45503
88399414.0625,-68.58016
88400390.625,-68.58044
88401367.1875,-68.62215
88402343.75,-68.89841
88403320.3125,-69.01576
88404296.875,-69.42737
88405273.4375,-69.7885
88406250.0,-70.11699
88407226.5625,-70.489845
88408203.125,-70.506454
88409179.6875,-70.46818
88410156.25,-70.67816
88411132.8125,-70.69074
88412109.375,-70.70196
88413085.9375,-70.68046
88414062.5,-70.53819
88415039.0625,-70.482
88416015.625,-70.1245
88416992.1875,-70.4161
88417968.75,-70.561615
88418945.3125,-70.54638
88419921.875,-70.7197
88420898.4375,-70.52032
88421875.0,-70.37199
88422851.5625,-70.5759
88423828.125,-70.59753
88424804.6875,-70.60309
88425781.25,-70.52112
88426757.8125,-70.238106
88427734.375,-70.07058
88428710.9375,-69.60876
88429687.5,-69.189674
88430664.0625,-69.15675
88431640.625,-69.647766
88432617.1875,-70.08487
88433593.75,-70.459984
88434570.3125,-70.54739
88435546.875,-70.56085
88436523.4375,-70.52895
88437500.0,-70.54707
88438476.5625,-70.53027
88439453.125,-70.74501
88440429.6875,-70.72241
88441406.25,-70.715004
88442382.8125,-70.641884
88443359.375,-70.6719
88444335.9375,-70.647964
88445312.5,-70.48771
88446289.0625,-70.52396
88447265.625,-70.7452
88448242.1875,-70.64111
88449218.75,-70.51391
88450195.3125,-70.586815
88451171.875,-70.761444
88452148.4375,-70.76315
88453125.0,-70.55632
88454101.5625,-70.53334
88455078.125,-70.74901
88456054.6875,-70.590385
88457031.25,-70.2943
88458007.8125,-70.21523
88458984.375,-70.15037
88459960.9375,-69.942635
88460937.5,-69.785194
88461914.0625,-69.628784
88462890.625,-69.73107
88463867.1875,-69.92199
88464843.75,-70.10218
88465820.3125,-70.085304
88466796.875,-69.99886
88467773.4375,-69.91258
88468750.0,-69.94701
88469726.5625,-70.109856
88470703.125,-70.17494
88471679.6875,-70.28542
88472656.25,-70.26908
88473632.8125,-70.29639
88474609.375,-70.40019
88475585.9375,-70.492165
88476562.5,-70.725426
88477539.0625,-70.73027
88478515.625,-70.52039
88479492.1875,-70.60434
88480468.75,-70.54048
88481445.3125,-70.66105
88482421.875,-70.67123
88483398.4375,-70.71847
88484375.0,-70.74871
88485351.5625,-70.56379
88486328.125,-70.44994
88487304.6875,-70.62772
88488281.25,-70.67883
88489257.8125,-70.589035
88490234.375,-70.68041
88491210.9375,-70.709984
88492187.5,-70.61428
88493164.0625,-70.53138
88494140.625,-70.49533
88495117.1875,-70.77785
88496093.75,-70.71697
88497070.3125,-70.37711
88498046.875,-70.38128
88499023.4375,-70.23182
88500000.0,-69.96566
88500976.5625,-70.43687
88501953.125,-70.65978
88502929.6875,-70.67283
88503906.25,-70.41382
88504882.8125,-70.53828
88505859.375,-70.73783
88506835.9375,-70.649635
88507812.5,-70.6986
88508789.0625,-70.540565
88509765.625,-70.593216
88510742.1875,-70.60868
88511718.75,-70.7632
88512695.3125,-70.72242
88513671.875,-70.64441
88514648.4375,-70.46073
88515625.0,-70.502495
88516601.5625,-70.526535
88517578.125,-70.50141
88518554.6875,-70.546104
88519531.25,-70.569626
88520507.8125,-70.471054
88521484.375,-70.476166
88522460.9375,-70.62096
88523437.5,-70.46815
88524414.0625,-70.42975
88525390.625,-70.425125
88526367.1875,-70.49201
88527343.75,-70.61866
88528320.3125,-70.74584
88529296.875,-70.62872
88530273.4375,-70.483635
88531250.0,-70.685905
88532226.5625,-70.79004
88533203.125,-70.61584
88534179.6875,-70.516685
88535156.25,-70.6319
88536132.8125,-70.51634
88537109.375,-70.56927
88538085.9375,-70.47538
88539062.5,-70.347946
88540039.0625,-70.40068
88541015.625,-70.33685
88541992.1875,-70.60607
88542968.75,-70.53911
88543945.3125,-70.51192
88544921.875,-70.65199
88545898.4375,-70.58652
88546875.0,-70.45854
88547851.5625,-70.609344
88548828.125,-70.5931
88549804.6875,-70.372
88550781.25,-70.591385
88551757.8125,-70.56187
88552734.375,-70.53559
88553710.9375,-70.637695
88554687.5,-70.57697
88555664.0625,-70.74358
88556640.625,-70.754005
88557617.1875,-70.58047
88558593.75,-70.57162
88559570.3125,-70.54267
88560546.875,-70.56119
88561523.4375,-70.48364
88562500.0,-70.52666
88563476.5625,-70.42665
88564453.125,-70.54158
88565429.6875,-70.57927
88566406.25,-70.587
88567382.8125,-70.642006
88568359.375,-70.6582
88569335.9375,-70.71623
88570312.5,-70.873886
88571289.0625,-70.74664
88572265.625,-70.5973
88573242.1875,-70.58051
88574218.75,-70.53897
88575195.3125,-70.477135
88576171.875,-70.48413
88577148.4375,-70.41804
88578125.0,-70.43248
88579101.5625,-70.52427
88580078.125,-70.619286
88581054.6875,-70.52951
88582031.25,-70.513565
88583007.8125,-70.51425
88583984.375,-70.404144
88584960.9375,-70.4526
88585937.5,-70.505226
88586914.0625,-70.391815
88587890.625,-70.53453
88588867.1875,-70.52276
88589843.75,-70.54025
88590820.3125,-70.58373
88591796.875,-70.56459
88592773.4375,-70.553925
88593750.0,-70.438034
88594726.5625,-70.4608
88595703.125,-70.517494
88596679.6875,-70.34238
88597656.25,-70.248405
88598632.8125,-70.37157
88599609.375,-70.28902
88600585.9375,-70.15821
88601562.5,-70.22391
88602539.0625,-70.27732
88603515.625,-70.23664
88604492.1875,-70.147125
88605468.75,-70.37471
88606445.3125,-70.49906
88607421.875,-70.492905
88608398.4375,-70.45755
88609375.0,-70.49106
88610351.5625,-70.59222
88611328.125,-70.549446
88612304.6875,-70.66633
88613281.25,-70.75205
88614257.8125,-70.84638
88615234.375,-70.67271
88616210.9375,-70.43406
88617187.5,-70.54454
88618164.0625,-70.499886
88619140.625,-70.42266
88620117.1875,-70.47303
88621093.75,-70.49274
88622070.3125,-70.54473
88623046.875,-70.79184
88624023.4375,-70.691696
88625000.0,-70.61717
88625976.5625,-70.74432
88626953.125,-70.5334
88627929.6875,-70.522644
88628906.25,-70.592094
88629882.8125,-70.63817
88630859.375,-70.51826
88631835.9375,-70.41291
88632812.5,-70.37629
88633789.0625,-70.3848
88634765.625,-70.448616
88635742.1875,-70.530785
88636718.75,-70.48747
88637695.3125,-70.47216
88638671.875,-70.61774
88639648.4375,-70.54729
88640625.0,-70.587326
88641601.5625,-70.725334
88642578.125,-70.70242
88643554.6875,-70.51063
88644531.25,-70.40476
88645507.8125,-70.453224
88646484.375,-70.43278
88647460.9375,-70.47937
88648437.5,-70.577866
88649414.0625,-70.611176
88650390.625,-70.46311
88651367.1875,-70.591
88652343.75,-70.536255
88653320.3125,-70.29214
88654296.875,-70.25235
88655273.4375,-70.432045
88656250.0,-70.45984
88657226.5625,-70.586685
88658203.125,-70.427414
88659179.6875,-70.53834
88660156.25,-70.5777
88661132.8125,-70.52576
88662109.375,-70.63886
88663085.9375,-70.5695
88664062.5,-70.435
88665039.0625,-70.42996
88666015.625,-70.42729
88666992.1875,-70.58598
88667968.75,-70.55905
88668945.3125,-70.58152
88669921.875,-70.45432
88670898.4375,-70.579865
88671875.0,-70.52947
88672851.5625,-70.59608
88673828.125,-70.63378
88674804.6875,-70.48492
88675781.25,-70.44705
88676757.8125,-70.383446
88677734.375,-70.57456
88678710.9375,-70.511955
88679687.5,-70.296974
88680664.0625,-70.4682
88681640.625,-70.5196
88682617.1875,-70.475655
88683593.75,-70.39987
88684570.3125,-70.36313
88685546.875,-70.49867
88686523.4375,-70.43221
88687500.0,-70.46002
88688476.5625,-70.44883
88689453.125,-70.47489
88690429.6875,-70.49091
88691406.25,-70.53224
88692382.8125,-70.614075
88693359.375,-70.69881
88694335.9375,-70.68965
88695312.5,-70.7808
88696289.0625,-70.57877
88697265.625,-70.55739
88698242.1875,-70.69972
88699218.75,-70.59338
88700195.3125,-70.34479
88701171.875,-70.24549
88702148.4375,-70.28564
88703125.0,-70.459045
88704101.5625,-70.19289
88705078.125,-69.779495
88706054.6875,-68.58855
88707031.25,-67.97866
88708007.8125,-69.1346
88708984.375,-69.603195
88709960.9375,-68.108604
88710937.5,-67.41083
88711914.0625,-68.33975
88712890.625,-68.8962
88713867.1875,-68.959915
88714843.75,-69.44776
88715820.3125,-70.1442
88716796.875,-70.335526
88717773.4375,-70.36398
88718750.0,-70.32744
88719726.5625,-70.38755
88720703.125,-70.54687
88721679.6875,-70.52163
88722656.25,-70.340744
88723632.8125,-70.4198
88724609.375,-70.47745
88725585.9375,-70.33263
88726562.5,-70.37059
88727539.0625,-70.50989
88728515.625,-70.49051
88729492.1875,-70.35643
88730468.75,-70.28211
88731445.3125,-70.033424
88732421.875,-70.03198
88733398.4375,-70.13827
88734375.0,-70.1293
88735351.5625,-70.10231
88736328.125,-70.19281
88737304.6875,-70.081154
88738281.25,-70.11229
88739257.8125,-70.28808
88740234.375,-70.25743
88741210.9375,-70.09204
88742187.5,-70.09037
88743164.0625,-70.005295
88744140.625,-70.02962
88745117.1875,-70.10701
88746093.75,-70.253235
88747070.3125,-70.00897
88748046.875,-70.17225
88749023.4375,-70.19887
88750000.0,-70.12466
88750976.5625,-69.99137
88751953.125,-70.17483
88752929.6875,-70.5074
88753906.25,-70.438774
88754882.8125,-70.32321
88755859.375,-70.41301
88756835.9375,-70.32706
88757812.5,-70.214096
88758789.0625,-70.23167
88759765.625,-70.18846
88760742.1875,-70.08332
88761718.75,-69.06066
88762695.3125,-67.07492
88763671.875,-65.55993
88764648.4375,-64.885735
88765625.0,-62.842896
88766601.5625,-59.588093
88767578.125,-56.225815
88768554.6875,-53.74166
88769531.25,-53.853554
88770507.8125,-55.79709
88771484.375,-57.984653
88772460.9375,-60.904575
88773437.5,-63.866344
88774414.0625,-66.62929
88775390.625,-68.422874
88776367.1875,-69.59964
88777343.75,-70.23708
88778320.3125,-70.34575
88779296.875,-70.50106
88780273.4375,-70.42247
88781250.0,-70.366005
88782226.5625,-70.4821
88783203.125,-70.48762
88784179.6875,-70.70105
88785156.25,-70.53752
88786132.8125,-70.45378
88787109.375,-70.58736
88788085.9375,-70.573875
88789062.5,-70.524994
88790039.0625,-70.409
88791015.625,-70.37101
88791992.1875,-70.33212
88792968.75,-70.394684
88793945.3125,-70.33265
88794921.875,-70.17291
88795898.4375,-70.20378
88796875.0,-70.41438
88797851.5625,-70.36159
88798828.125,-69.6585
88799804.6875,-67.08209
88800781.25,-68.68269
88801757.8125,-70.4735
88802734.375,-70.35184
88803710.9375,-70.33542
88804687.5,-70.47679
88805664.0625,-70.42224
88806640.625,-70.34553
88807617.1875,-70.48083
88808593.75,-70.39378
88809570.3125,-70.38594
88810546.875,-70.2183
88811523.4375,-70.15999
88812500.0,-70.26667
88813476.5625,-70.4595
88814453.125,-70.51612
88815429.6875,-70.44824
88816406.25,-70.45916
88817382.8125,-70.64704
88818359.375,-70.4374
88819335.9375,-70.29687
88820312.5,-70.266525
88821289.0625,-69.01463
88822265.625,-67.21976
88823242.1875,-68.12943
88824218.75,-68.99782
88825195.3125,-69.18275
88826171.875,-69.71045
88827148.4375,-70.00462
88828125.0,-69.98608
88829101.5625,-69.638145
88830078.125,-69.063446
88831054.6875,-68.32391
88832031.25,-67.57357
88833007.8125,-66.951866
88833984.375,-66.95044
88834960.9375,-67.179405
88835937.5,-67.34858
88836914.0625,-66.15694
88837890.625,-64.38071
88838867.1875,-67.16104
88839843.75,-69.97346
88840820.3125,-70.311295
88841796.875,-70.46274
88842773.4375,-70.4167
88843750.0,-70.37278
88844726.5625,-70.4775
88845703.125,-70.365616
88846679.6875,-70.40455
88847656.25,-70.463356
88848632.8125,-70.38133
88849609.375,-70.36345
88850585.9375,-70.43652
88851562.5,-70.06589
88852539.0625,-69.82706
88853515.625,-69.63385
88854492.1875,-69.2801
88855468.75,-69.273
88856445.3125,-69.14299
88857421.875,-68.856155
88858398.4375,-68.650925
88859375.0,-68.61355
88860351.5625,-68.591324
88861328.125,-68.29962
88862304.6875,-68.305084
88863281.25,-68.467995
88864257.8125,-68.66123
88865234.375,-69.00275
88866210.9375,-69.36586
88867187.5,-69.643005
88868164.0625,-70.003265
88869140.625,-70.224014
88870117.1875,-70.287445
88871093.75,-70.38795
88872070.3125,-70.523994
88873046.875,-70.42833
88874023.4375,-70.402176
88875000.0,-70.39319
88875976.5625,-70.42206
88876953.125,-70.381836
88877929.6875,-70.4534
88878906.25,-70.46001
88879882.8125,-70.47743
88880859.375,-70.33902
88881835.9375,-70.41298
88882812.5,-70.52875
88883789.0625,-70.47677
88884765.625,-70.39278
88885742.1875,-70.40184
88886718.75,-70.37346
88887695.3125,-70.3069
88888671.875,-70.28829
88889648.4375,-70.33496
88890625.0,-70.28444
88891601.5625,-70.42238
88892578.125,-70.4294
88893554.6875,-70.585556
88894531.25,-70.5395
88895507.8125,-70.57117
88896484.375,-70.61988
88897460.9375,-70.51611
88898437.5,-70.399635
88899414.0625,-70.48488
88900390.625,-70.50922
88901367.1875,-70.571884
88902343.75,-70.44112
88903320.3125,-70.40092
88904296.875,-70.41299
88905273.4375,-70.6151
88906250.0,-70.62736
88907226.5625,-70.45224
88908203.125,-70.61599
88909179.6875,-70.609825
88910156.25,-70.482605
88911132.8125,-70.4065
88912109.375,-70.438446
88913085.9375,-70.529724
88914062.5,-70.576645
88915039.0625,-70.55935
88916015.625,-70.46986
88916992.1875,-70.63096
88917968.75,-70.68722
88918945.3125,-70.70662
88919921.875,-70.349976
88920898.4375,-70.37695
88921875.0,-70.37091
88922851.5625,-70.25662
88923828.125,-70.43981
88924804.6875,-70.3901
88925781.25,-70.35892
88926757.8125,-70.40034
88927734.375,-70.51227
88928710.9375,-70.5228
88929687.5,-70.57792
88930664.0625,-70.57829
88931640.625,-70.50914
88932617.1875,-70.45592
88933593.75,-70.42041
88934570.3125,-70.35647
88935546.875,-70.34531
88936523.4375,-70.28078
88937500.0,-70.42237
88938476.5625,-70.30629
88939453.125,-70.16653
88940429.6875,-70.238144
88941406.25,-70.37765
88942382.8125,-70.507996
88943359.375,-70.51229
88944335.9375,-70.57295
88945312.5,-70.48645
88946289.0625,-70.403336
88947265.625,-70.61516
88948242.1875,-70.64767
88949218.75,-70.598976
88950195.3125,-70.53659
88951171.875,-70.44363
88952148.4375,-70.57297
88953125.0,-70.59582
88954101.5625,-70.32548
88955078.125,-70.2781
88956054.6875,-70.60709
88957031.25,-70.66703
88958007.8125,-70.589195
88958984.375,-70.58168
88959960.9375,-70.73829
88960937.5,-70.70718
88961914.0625,-70.65042
88962890.625,-70.61524
88963867.1875,-70.50871
88964843.75,-70.62449
88965820.3125,-70.51017
88966796.875,-70.47591
88967773.4375,-70.486305
88968750.0,-70.37637
88969726.5625,-70.49785
88970703.125,-70.56829
88971679.6875,-70.57519
88972656.25,-70.59463
88973632.8125,-70.61569
88974609.375,-70.34535
88975585.9375,-70.37001
88976562.5,-70.400795
88977539.0625,-70.26925
88978515.625,-70.463036
88979492.1875,-70.33574
88980468.75,-70.37942
88981445.3125,-70.49823
88982421.875,-70.44201
88983398.4375,-70.546005
88984375.0,-70.581985
88985351.5625,-70.58936
88986328.125,-70.47249
88987304.6875,-70.54906
88988281.25,-70.3951
88989257.8125,-70.43387
88990234.375,-70.5466
88991210.9375,-70.46363
88992187.5,-70.44408
88993164.0625,-70.44819
88994140.625,-70.47161
88995117.1875,-70.45273
88996093.75,-70.498085
88997070.3125,-70.47241
88998046.875,-70.43817
88999023.4375,-70.33739
