Frequency (Hz),PSD (dBm)
108000000.0,-70.22292
108009765.625,-70.24194
108019531.25,-70.24313
108029296.875,-70.294914
108039062.5,-70.29517
108048828.125,-70.257484
108058593.75,-70.23683
108068359.375,-70.27028
108078125.0,-70.240364
108087890.625,-70.188835
108097656.25,-70.22425
108107421.875,-70.218704
108117187.5,-70.20683
108126953.125,-70.21989
108136718.75,-70.2283
108146484.375,-70.241974
108156250.0,-70.29057
108166015.625,-70.28749
108175781.25,-70.26128
108185546.875,-70.26856
108195312.5,-70.25294
108205078.125,-70.26206
108214843.75,-70.26827
108224609.375,-70.27869
108234375.0,-70.27452
108244140.625,-70.247086
108253906.25,-70.26538
108263671.875,-70.25085
108273437.5,-70.229744
108283203.125,-70.24835
108292968.75,-70.24717
108302734.375,-70.299576
108312500.0,-70.2584
108322265.625,-70.194405
108332031.25,-70.21763
108341796.875,-70.24875
108351562.5,-70.23715
108361328.125,-70.21515
108371093.75,-70.18852
108380859.375,-70.24421
108390625.0,-70.217766
108400390.625,-70.23065
108410156.25,-70.260345
108419921.875,-70.2731
108429687.5,-70.22749
108439453.125,-70.24603
108449218.75,-70.23539
108458984.375,-70.25622
108468750.0,-70.24344
108478515.625,-70.25531
108488281.25,-70.270454
108498046.875,-70.33326
108507812.5,-70.28275
108517578.125,-70.24425
108527343.75,-70.32123
108537109.375,-70.294174
108546875.0,-70.25523
108556640.625,-70.29756
108566406.25,-70.29075
108576171.875,-70.30461
108585937.5,-70.32756
108595703.125,-70.266335
108605468.75,-70.282104
108615234.375,-70.28001
108625000.0,-70.25962
108634765.625,-70.25436
108644531.25,-70.270226
108654296.875,-70.25878
108664062.5,-70.297554
108673828.125,-70.31794
108683593.75,-70.2677
108693359.375,-70.26822
108703125.0,-70.23807
108712890.625,-70.23714
108722656.25,-70.23178
108732421.875,-70.201645
108742187.5,-70.25405
108751953.125,-70.26391
108761718.75,-70.29628
108771484.375,-70.22624
108781250.0,-70.246216
108791015.625,-70.23099
108800781.25,-70.26419
108810546.875,-70.31009
108820312.5,-70.33649
108830078.125,-70.30443
108839843.75,-70.27379
108849609.375,-70.31877
108859375.0,-70.30652
108869140.625,-70.27403
108878906.25,-70.238716
108888671.875,-70.22372
108898437.5,-70.20116
108908203.125,-70.20833
108917968.75,-70.269135
108927734.375,-70.26794
108937500.0,-70.25874
108947265.625,-70.23534
108957031.25,-70.28111
108966796.875,-70.300644
108976562.5,-70.29863
108986328.125,-70.298355
108996093.75,-70.31467
109005859.375,-70.28436
109015625.0,-70.22559
109025390.625,-70.24165
109035156.25,-70.26453
109044921.875,-70.24082
109054687.5,-70.278625
109064453.125,-70.27938
109074218.75,-70.203354
109083984.375,-70.1887
109093750.0,-70.03158
109103515.625,-69.79942
109113281.25,-69.98748
109123046.875,-70.229225
109132812.5,-70.266426
109142578.125,-70.26208
109152343.75,-70.268585
109162109.375,-70.27709
109171875.0,-70.242775
109181640.625,-70.26933
109191406.25,-70.25626
109201171.875,-70.25874
109210937.5,-70.25354
109220703.125,-70.24843
109230468.75,-70.28491
109240234.375,-70.26443
109250000.0,-70.24178
109259765.625,-70.25877
109269531.25,-70.22576
109279296.875,-70.19
109289062.5,-70.19382
109298828.125,-70.21485
109308593.75,-70.24785
109318359.375,-70.24131
109328125.0,-70.278435
109337890.625,-70.26131
109347656.25,-70.27582
109357421.875,-70.2894
109367187.5,-70.270966
109376953.125,-70.26551
109386718.75,-70.251366
109396484.375,-70.25957
109406250.0,-70.28314
109416015.625,-70.25079
109425781.25,-70.328026
109435546.875,-70.3232
109445312.5,-70.29757
109455078.125,-70.296005
109464843.75,-70.26396
109474609.375,-70.24367
109484375.0,-70.223755
109494140.625,-70.1933
109503906.25,-70.21918
109513671.875,-70.263245
109523437.5,-70.30567
109533203.125,-70.31122
109542968.75,-70.34212
109552734.375,-70.30376
109562500.0,-70.184845
109572265.625,-70.23283
109582031.25,-70.31713
109591796.875,-70.22481
109601562.5,-70.253586
109611328.125,-70.31308
109621093.75,-70.22747
109630859.375,-70.25212
109640625.0,-70.26589
109650390.625,-70.248146
109660156.25,-70.291306
109669921.875,-70.326126
109679687.5,-70.3042
109689453.125,-70.23762
109699218.75,-70.26511
109708984.375,-70.28485
109718750.0,-70.304924
109728515.625,-70.32006
109738281.25,-70.39755
109748046.875,-70.33191
109757812.5,-70.23101
109767578.125,-70.20339
109777343.75,-70.24991
109787109.375,-70.244705
109796875.0,-70.21111
109806640.625,-70.2242
109816406.25,-70.21591
109826171.875,-70.282646
109835937.5,-70.32263
109845703.125,-70.2995
109855468.75,-70.27629
109865234.375,-70.22472
109875000.0,-70.248634
109884765.625,-70.31568
109894531.25,-70.280396
109904296.875,-70.269455
109914062.5,-70.28409
109923828.125,-70.26991
109933593.75,-70.28505
109943359.375,-70.3274
109953125.0,-70.27861
109962890.625,-70.27402
109972656.25,-70.243546
109982421.875,-70.26483
109992187.5,-69.77066
110001953.125,-69.18489
110011718.75,-70.09485
110021484.375,-70.24948
110031250.0,-70.26222
110041015.625,-70.29001
110050781.25,-70.31043
110060546.875,-70.2759
110070312.5,-70.20771
110080078.125,-70.25542
110089843.75,-70.247574
110099609.375,-70.242386
110109375.0,-70.24107
110119140.625,-70.2526
110128906.25,-70.27266
110138671.875,-70.20077
110148437.5,-70.17298
110158203.125,-70.176865
110167968.75,-70.18025
110177734.375,-70.21207
110187500.0,-70.27021
110197265.625,-70.25019
110207031.25,-70.23277
110216796.875,-70.24199
110226562.5,-70.27618
110236328.125,-70.26533
110246093.75,-70.252914
110255859.375,-70.253204
110265625.0,-70.22189
110275390.625,-70.19614
110285156.25,-70.15064
110294921.875,-70.18897
110304687.5,-70.20875
110314453.125,-70.21032
110324218.75,-70.188545
110333984.375,-70.20352
110343750.0,-70.18074
110353515.625,-70.18979
110363281.25,-70.19075
110373046.875,-70.229836
110382812.5,-70.26251
110392578.125,-70.23458
110402343.75,-70.2459
110412109.375,-70.2795
110421875.0,-70.254005
110431640.625,-70.19309
110441406.25,-70.25268
110451171.875,-70.24516
110460937.5,-70.25493
110470703.125,-70.247215
110480468.75,-70.25721
110490234.375,-70.2617
110500000.0,-70.28793
110509765.625,-70.26311
110519531.25,-70.20198
110529296.875,-70.1844
110539062.5,-70.22644
110548828.125,-70.197464
110558593.75,-70.17289
110568359.375,-70.222626
110578125.0,-70.26199
110587890.625,-70.2576
110597656.25,-70.2159
110607421.875,-70.220215
110617187.5,-70.21127
110626953.125,-70.24278
110636718.75,-70.25636
110646484.375,-70.217415
110656250.0,-70.22014
110666015.625,-70.2105
110675781.25,-70.18578
110685546.875,-70.14266
110695312.5,-70.1759
110705078.125,-70.21761
110714843.75,-70.207565
110724609.375,-70.157364
110734375.0,-70.153915
110744140.625,-70.16843
110753906.25,-70.22637
110763671.875,-70.22291
110773437.5,-70.20716
110783203.125,-70.195305
110792968.75,-70.185936
110802734.375,-70.17756
110812500.0,-70.23742
110822265.625,-70.24945
110832031.25,-70.25789
110841796.875,-70.17897
110851562.5,-70.1663
110861328.125,-70.17804
110871093.75,-70.20797
110880859.375,-70.21645
110890625.0,-70.21976
110900390.625,-70.19758
110910156.25,-70.17485
110919921.875,-70.19229
110929687.5,-70.21197
110939453.125,-70.200134
110949218.75,-70.19402
110958984.375,-70.178276
110968750.0,-70.24457
110978515.625,-70.23533
110988281.25,-70.14847
110998046.875,-70.15868
111007812.5,-70.2003
111017578.125,-70.213295
111027343.75,-70.22328
111037109.375,-70.159256
111046875.0,-70.163704
111056640.625,-70.15053
111066406.25,-70.12816
111076171.875,-70.16167
111085937.5,-70.215225
111095703.125,-70.16314
111105468.75,-70.12481
111115234.375,-70.17374
111125000.0,-70.217354
111134765.625,-70.23347
111144531.25,-70.22476
111154296.875,-70.25926
111164062.5,-70.23486
111173828.125,-70.20297
111183593.75,-70.16976
111193359.375,-70.194405
111203125.0,-70.23146
111212890.625,-70.19227
111222656.25,-70.217125
111232421.875,-70.18697
111242187.5,-70.21158
111251953.125,-70.21839
111261718.75,-70.22684
111271484.375,-70.25226
111281250.0,-70.23237
111291015.625,-70.17409
111300781.25,-70.194405
111310546.875,-70.205376
111320312.5,-70.20061
111330078.125,-70.198265
111339843.75,-70.16841
111349609.375,-70.18614
111359375.0,-70.10458
111369140.625,-70.183044
111378906.25,-70.24768
111388671.875,-70.25847
111398437.5,-70.26369
111408203.125,-70.260445
111417968.75,-70.26111
111427734.375,-70.218666
111437500.0,-70.194534
111447265.625,-70.23487
111457031.25,-70.19054
111466796.875,-70.05522
111476562.5,-69.87824
111486328.125,-70.00305
111496093.75,-70.14062
111505859.375,-70.213455
111515625.0,-70.25629
111525390.625,-70.27144
111535156.25,-70.281845
111544921.875,-70.24235
111554687.5,-70.17352
111564453.125,-70.17365
111574218.75,-70.21677
111583984.375,-70.22414
111593750.0,-70.20733
111603515.625,-70.191124
111613281.25,-70.24136
111623046.875,-70.17891
111632812.5,-70.14359
111642578.125,-70.196144
111652343.75,-70.16251
111662109.375,-70.183426
111671875.0,-70.24849
111681640.625,-70.237015
111691406.25,-70.153206
111701171.875,-70.20804
111710937.5,-70.223816
111720703.125,-70.22185
111730468.75,-70.1936
111740234.375,-70.188034
111750000.0,-70.19379
111759765.625,-70.19205
111769531.25,-70.15468
111779296.875,-70.150826
111789062.5,-70.13838
111798828.125,-70.18203
111808593.75,-70.2015
111818359.375,-70.15794
111828125.0,-70.18597
111837890.625,-70.1314
111847656.25,-70.12221
111857421.875,-70.156586
111867187.5,-70.15468
111876953.125,-70.1424
111886718.75,-70.18106
111896484.375,-70.2361
111906250.0,-70.22201
111916015.625,-70.18923
111925781.25,-70.17931
111935546.875,-70.21672
111945312.5,-70.19004
111955078.125,-70.135056
111964843.75,-70.14189
111974609.375,-70.17899
111984375.0,-70.17098
111994140.625,-70.15317
112003906.25,-70.11433
112013671.875,-70.148506
112023437.5,-70.20046
112033203.125,-70.18178
112042968.75,-70.18193
112052734.375,-70.163956
112062500.0,-70.175545
112072265.625,-70.197556
112082031.25,-70.22571
112091796.875,-70.20085
112101562.5,-70.11104
112111328.125,-70.17825
112121093.75,-70.19382
112130859.375,-70.173225
112140625.0,-70.17337
112150390.625,-70.137535
112160156.25,-70.15582
112169921.875,-70.15094
112179687.5,-70.17764
112189453.125,-70.21701
112199218.75,-70.188416
112208984.375,-70.12505
112218750.0,-70.08978
112228515.625,-70.12842
112238281.25,-70.150116
112248046.875,-70.13843
112257812.5,-70.07133
112267578.125,-70.09523
112277343.75,-70.0725
112287109.375,-70.08286
112296875.0,-70.063774
112306640.625,-70.071625
112316406.25,-70.072296
112326171.875,-70.08716
112335937.5,-70.09518
112345703.125,-70.08009
112355468.75,-70.04029
112365234.375,-70.071884
112375000.0,-70.0993
112384765.625,-70.06725
112394531.25,-70.05091
112404296.875,-70.03912
112414062.5,-70.010185
112423828.125,-69.99762
112433593.75,-70.05235
112443359.375,-70.05415
112453125.0,-69.96968
112462890.625,-69.9973
112472656.25,-69.976234
112482421.875,-69.970825
112492187.5,-70.04088
112501953.125,-70.033936
112511718.75,-69.97863
112521484.375,-69.915115
112531250.0,-69.96492
112541015.625,-69.988014
112550781.25,-69.93545
112560546.875,-69.90906
112570312.5,-69.98882
112580078.125,-69.93555
112589843.75,-69.90705
112599609.375,-69.912445
112609375.0,-69.86075
112619140.625,-69.85942
112628906.25,-69.83087
112638671.875,-69.82138
112648437.5,-69.84046
112658203.125,-69.823746
112667968.75,-69.81787
112677734.375,-69.854294
112687500.0,-69.85961
112697265.625,-69.77964
112707031.25,-69.76136
112716796.875,-69.77359
112726562.5,-69.79516
112736328.125,-69.862854
112746093.75,-69.87974
112755859.375,-69.85087
112765625.0,-69.88977
112775390.625,-69.8237
112785156.25,-69.80254
112794921.875,-69.78521
112804687.5,-69.804245
112814453.125,-69.829155
112824218.75,-69.88682
112833984.375,-69.86997
112843750.0,-69.89222
112853515.625,-69.88916
112863281.25,-69.92402
112873046.875,-69.87346
112882812.5,-69.88783
112892578.125,-69.90567
112902343.75,-69.892
112912109.375,-69.87197
112921875.0,-69.93586
112931640.625,-69.94269
112941406.25,-69.97737
112951171.875,-69.94674
112960937.5,-70.01092
112970703.125,-70.0395
112980468.75,-70.02498
112990234.375,-69.97214
113000000.0,-69.97951
113009765.625,-69.99892
113019531.25,-70.04344
113029296.875,-70.03972
113039062.5,-69.99135
113048828.125,-70.025894
113058593.75,-70.06599
113068359.375,-70.091
113078125.0,-70.10987
113087890.625,-70.14483
113097656.25,-70.0894
113107421.875,-70.04715
113117187.5,-70.048836
113126953.125,-70.08788
113136718.75,-70.084656
113146484.375,-70.08353
113156250.0,-70.1053
113166015.625,-70.17749
113175781.25,-70.13931
113185546.875,-70.06601
113195312.5,-70.10626
113205078.125,-70.11055
113214843.75,-70.064995
113224609.375,-70.13393
113234375.0,-70.1469
113244140.625,-70.10675
113253906.25,-70.12033
113263671.875,-70.12453
113273437.5,-70.14354
113283203.125,-70.093575
113292968.75,-70.0852
113302734.375,-70.12086
113312500.0,-70.11712
113322265.625,-70.127556
113332031.25,-70.15759
113341796.875,-70.160255
113351562.5,-70.15451
113361328.125,-70.127014
113371093.75,-70.137054
113380859.375,-70.13536
113390625.0,-70.10729
113400390.625,-70.17547
113410156.25,-70.204666
113419921.875,-70.18223
113429687.5,-70.15081
113439453.125,-70.18626
113449218.75,-70.14258
113458984.375,-70.12904
113468750.0,-70.16584
113478515.625,-70.17752
113488281.25,-70.19549
113498046.875,-70.19683
113507812.5,-70.158676
113517578.125,-70.180984
113527343.75,-70.164246
113537109.375,-70.14034
113546875.0,-70.17024
113556640.625,-70.15629
113566406.25,-70.17703
113576171.875,-70.17999
113585937.5,-70.161224
113595703.125,-70.157684
113605468.75,-70.11854
113615234.375,-70.13292
113625000.0,-70.21678
113634765.625,-70.17762
113644531.25,-70.15504
113654296.875,-70.1745
113664062.5,-70.17991
113673828.125,-70.20986
113683593.75,-70.21311
113693359.375,-70.2064
113703125.0,-70.16525
113712890.625,-70.182175
113722656.25,-70.182755
113732421.875,-70.19357
113742187.5,-70.1799
113751953.125,-70.16068
113761718.75,-70.18478
113771484.375,-70.20647
113781250.0,-70.17712
113791015.625,-70.183685
113800781.25,-70.1314
113810546.875,-70.11923
113820312.5,-70.18727
113830078.125,-70.217316
113839843.75,-69.98918
113849609.375,-69.763405
113859375.0,-69.95044
113869140.625,-70.117714
113878906.25,-70.19859
113888671.875,-70.22034
113898437.5,-70.23604
113908203.125,-70.21114
113917968.75,-70.15915
113927734.375,-70.16354
113937500.0,-70.19679
113947265.625,-70.20575
113957031.25,-70.19687
113966796.875,-70.250854
113976562.5,-70.22447
113986328.125,-70.22498
113996093.75,-70.20461
114005859.375,-70.20929
114015625.0,-70.18764
114025390.625,-70.20568
114035156.25,-70.25296
114044921.875,-70.18834
114054687.5,-70.21296
114064453.125,-70.23345
114074218.75,-70.19377
114083984.375,-70.161316
114093750.0,-70.19693
114103515.625,-70.19333
114113281.25,-70.133896
114123046.875,-70.17229
114132812.5,-70.18919
114142578.125,-70.1749
114152343.75,-70.18373
114162109.375,-70.213005
114171875.0,-70.17358
114181640.625,-70.115715
114191406.25,-70.147255
114201171.875,-70.19572
114210937.5,-70.16264
114220703.125,-70.129074
114230468.75,-70.18409
114240234.375,-70.195915
114250000.0,-70.18245
114259765.625,-70.143585
114269531.25,-70.18935
114279296.875,-70.21949
114289062.5,-70.1779
114298828.125,-70.17571
114308593.75,-70.11672
114318359.375,-70.158066
114328125.0,-70.2098
114337890.625,-70.2282
114347656.25,-70.21991
114357421.875,-70.18347
114367187.5,-70.12164
114376953.125,-70.16542
114386718.75,-70.16283
114396484.375,-70.19869
114406250.0,-70.193436
114416015.625,-70.19263
114425781.25,-70.174965
114435546.875,-70.2059
114445312.5,-70.202415
114455078.125,-70.1825
114464843.75,-70.14388
114474609.375,-70.12376
114484375.0,-70.12393
114494140.625,-70.15422
114503906.25,-70.20401
114513671.875,-70.22324
114523437.5,-70.28094
114533203.125,-70.21012
114542968.75,-70.17864
114552734.375,-70.15678
114562500.0,-70.13132
114572265.625,-70.17855
114582031.25,-70.19723
114591796.875,-70.25409
114601562.5,-70.223495
114611328.125,-70.21375
114621093.75,-70.16497
114630859.375,-70.12537
114640625.0,-70.13189
114650390.625,-70.206314
114660156.25,-70.19811
114669921.875,-70.165955
114679687.5,-70.21165
114689453.125,-70.20379
114699218.75,-70.21163
114708984.375,-70.24708
114718750.0,-70.249115
114728515.625,-70.218956
114738281.25,-70.19545
114748046.875,-70.1386
114757812.5,-70.181305
114767578.125,-70.19914
114777343.75,-70.211784
114787109.375,-70.25402
114796875.0,-70.23367
114806640.625,-70.19794
114816406.25,-70.16903
114826171.875,-70.18729
114835937.5,-70.30437
114845703.125,-70.2169
114855468.75,-70.20966
114865234.375,-70.188644
114875000.0,-70.1988
114884765.625,-70.21552
114894531.25,-70.23045
114904296.875,-70.25511
114914062.5,-70.212585
114923828.125,-70.17036
114933593.75,-70.246056
114943359.375,-70.22552
114953125.0,-70.22101
114962890.625,-70.2078
114972656.25,-70.20972
114982421.875,-70.207275
114992187.5,-70.15934
115001953.125,-70.20103
115011718.75,-70.154335
115021484.375,-70.13418
115031250.0,-70.174355
115041015.625,-70.16204
115050781.25,-70.19397
115060546.875,-70.236145
115070312.5,-70.242096
115080078.125,-70.17266
115089843.75,-70.18142
115099609.375,-70.183044
115109375.0,-70.15024
115119140.625,-70.19183
115128906.25,-70.23229
115138671.875,-70.228065
115148437.5,-70.24035
115158203.125,-70.21512
115167968.75,-70.19303
115177734.375,-70.205444
115187500.0,-70.20209
115197265.625,-70.200195
115207031.25,-70.178055
115216796.875,-70.20177
115226562.5,-70.238174
115236328.125,-70.278595
115246093.75,-70.26061
115255859.375,-70.211105
115265625.0,-70.27889
115275390.625,-70.26998
115285156.25,-70.244385
115294921.875,-70.23401
115304687.5,-70.23326
115314453.125,-70.24674
115324218.75,-70.227104
115333984.375,-70.17237
115343750.0,-70.1922
115353515.625,-70.21755
115363281.25,-70.23954
115373046.875,-70.23526
115382812.5,-70.204636
115392578.125,-70.17083
115402343.75,-70.202225
115412109.375,-70.226685
115421875.0,-70.23781
115431640.625,-70.193474
115441406.25,-70.18422
115451171.875,-70.22638
115460937.5,-70.18111
115470703.125,-70.17009
115480468.75,-70.19832
115490234.375,-70.18515
115500000.0,-70.18411
115509765.625,-70.19587
115519531.25,-70.20291
115529296.875,-70.163055
115539062.5,-70.17467
115548828.125,-70.219604
115558593.75,-70.24158
115568359.375,-70.253586
115578125.0,-70.22076
115587890.625,-70.18726
115597656.25,-70.22113
115607421.875,-70.21277
115617187.5,-70.181656
115626953.125,-70.17417
115636718.75,-70.28673
115646484.375,-70.31727
115656250.0,-70.23932
115666015.625,-70.220825
115675781.25,-70.24371
115685546.875,-70.214836
115695312.5,-70.1826
115705078.125,-70.22981
115714843.75,-70.268
115724609.375,-70.26148
115734375.0,-70.27398
115744140.625,-70.25115
115753906.25,-70.23887
115763671.875,-70.21266
115773437.5,-70.191734
115783203.125,-70.198685
115792968.75,-70.18222
115802734.375,-70.228
115812500.0,-70.26401
115822265.625,-70.216995
115832031.25,-70.19086
115841796.875,-70.21025
115851562.5,-70.2132
115861328.125,-70.20064
115871093.75,-70.195595
115880859.375,-70.24769
115890625.0,-70.26711
115900390.625,-70.25783
115910156.25,-70.2362
115919921.875,-70.21727
115929687.5,-70.20236
115939453.125,-70.21438
115949218.75,-70.19138
115958984.375,-70.196915
115968750.0,-70.23928
115978515.625,-70.2115
115988281.25,-70.055466
115998046.875,-69.16838
116007812.5,-69.72962
116017578.125,-70.21206
116027343.75,-70.19556
116037109.375,-70.22825
116046875.0,-70.23907
116056640.625,-70.25837
116066406.25,-70.23496
116076171.875,-70.207855
116085937.5,-70.23948
116095703.125,-70.283226
116105468.75,-70.21254
116115234.375,-70.18323
116125000.0,-70.26833
116134765.625,-70.2263
116144531.25,-70.209724
116154296.875,-70.19975
116164062.5,-70.20065
116173828.125,-70.247856
116183593.75,-70.23775
116193359.375,-70.20377
116203125.0,-70.06769
116212890.625,-69.63402
116222656.25,-69.39839
116232421.875,-69.849236
116242187.5,-70.1665
116251953.125,-70.196465
116261718.75,-70.15154
116271484.375,-70.215904
116281250.0,-70.23015
116291015.625,-70.186356
116300781.25,-70.1657
116310546.875,-70.19729
116320312.5,-70.26953
116330078.125,-70.269684
116339843.75,-70.21691
116349609.375,-70.19073
116359375.0,-70.19345
116369140.625,-70.24352
116378906.25,-70.29476
116388671.875,-70.19657
116398437.5,-70.16815
116408203.125,-70.198906
116417968.75,-70.222725
116427734.375,-70.24577
116437500.0,-70.1646
116447265.625,-70.175995
116457031.25,-70.23845
116466796.875,-70.189735
116476562.5,-70.17425
116486328.125,-70.18296
116496093.75,-70.218285
116505859.375,-70.2777
116515625.0,-70.26067
116525390.625,-70.19642
116535156.25,-70.1836
116544921.875,-70.21897
116554687.5,-70.22775
116564453.125,-70.231445
116574218.75,-70.24271
116583984.375,-70.18092
116593750.0,-70.142654
116603515.625,-70.16049
116613281.25,-70.17274
116623046.875,-70.176346
116632812.5,-70.17241
116642578.125,-70.18815
116652343.75,-70.19547
116662109.375,-70.20346
116671875.0,-70.19279
116681640.625,-70.15212
116691406.25,-70.176674
116701171.875,-70.21846
116710937.5,-70.2279
116720703.125,-70.18747
116730468.75,-70.16278
116740234.375,-70.145874
116750000.0,-70.18193
116759765.625,-70.2505
116769531.25,-70.21448
116779296.875,-70.221245
116789062.5,-70.20886
116798828.125,-70.172485
116808593.75,-70.20774
116818359.375,-70.21271
116828125.0,-70.18584
116837890.625,-70.155914
116847656.25,-70.17087
116857421.875,-70.1699
116867187.5,-70.17156
116876953.125,-70.219124
116886718.75,-70.19859
116896484.375,-70.170265
116906250.0,-70.20179
116916015.625,-70.20495
116925781.25,-70.21224
116935546.875,-70.19014
116945312.5,-70.23175
116955078.125,-70.23246
116964843.75,-70.201355
116974609.375,-70.16387
116984375.0,-70.19868
116994140.625,-70.2196
117003906.25,-70.2556
117013671.875,-70.21788
117023437.5,-70.132355
117033203.125,-70.15164
117042968.75,-70.14927
117052734.375,-70.13303
117062500.0,-70.14741
117072265.625,-70.18143
117082031.25,-70.18483
117091796.875,-70.133606
117101562.5,-70.11572
117111328.125,-70.15726
117121093.75,-70.197464
117130859.375,-70.16231
117140625.0,-70.16083
117150390.625,-70.18931
117160156.25,-70.22597
117169921.875,-70.19608
117179687.5,-70.15291
117189453.125,-70.193436
117199218.75,-70.14528
117208984.375,-70.147354
117218750.0,-70.18739
117228515.625,-70.19223
117238281.25,-70.21474
117248046.875,-70.18086
117257812.5,-70.13989
117267578.125,-70.15956
117277343.75,-70.14383
117287109.375,-70.17292
117296875.0,-70.20493
117306640.625,-70.19621
117316406.25,-70.18019
117326171.875,-70.130325
117335937.5,-70.09761
117345703.125,-70.147156
117355468.75,-70.1567
117365234.375,-70.17177
117375000.0,-70.20528
117384765.625,-70.208824
117394531.25,-70.239136
117404296.875,-70.16207
117414062.5,-70.15728
117423828.125,-70.144196
117433593.75,-70.16584
117443359.375,-70.19785
117453125.0,-70.174805
117462890.625,-70.1393
117472656.25,-70.082085
117482421.875,-70.1445
117492187.5,-70.14772
117501953.125,-70.111496
117511718.75,-70.13333
117521484.375,-70.14331
117531250.0,-70.157974
117541015.625,-70.16177
117550781.25,-70.18081
117560546.875,-70.17903
117570312.5,-70.158035
117580078.125,-70.17461
117589843.75,-70.14948
117599609.375,-70.13757
117609375.0,-70.13038
117619140.625,-70.12399
117628906.25,-70.111755
117638671.875,-70.11291
117648437.5,-70.09404
117658203.125,-70.10641
117667968.75,-70.128494
117677734.375,-70.14174
117687500.0,-70.161194
117697265.625,-70.162186
117707031.25,-70.12129
117716796.875,-70.13963
117726562.5,-70.132034
117736328.125,-70.10193
117746093.75,-70.09086
117755859.375,-70.087
117765625.0,-70.0549
117775390.625,-70.06298
117785156.25,-70.08424
117794921.875,-70.070625
117804687.5,-70.07632
117814453.125,-70.066284
117824218.75,-70.09248
117833984.375,-70.098236
117843750.0,-70.020935
117853515.625,-70.01256
117863281.25,-70.02242
117873046.875,-70.039825
117882812.5,-69.99869
117892578.125,-69.97192
117902343.75,-69.9086
117912109.375,-69.92346
117921875.0,-69.849884
117931640.625,-69.85187
117941406.25,-69.82162
117951171.875,-69.72892
117960937.5,-69.56307
117970703.125,-69.41762
117980468.75,-69.03589
117990234.375,-69.20587
118000000.0,-73.29165
118009765.625,-69.22679
118019531.25,-69.029854
118029296.875,-69.38459
118039062.5,-69.617325
118048828.125,-69.76529
118058593.75,-69.77517
118068359.375,-69.74708
118078125.0,-69.84835
118087890.625,-69.92943
118097656.25,-69.978874
118107421.875,-69.98721
118117187.5,-69.998764
118126953.125,-69.98902
118136718.75,-70.01108
118146484.375,-70.024704
118156250.0,-70.01408
118166015.625,-70.01788
118175781.25,-70.03714
118185546.875,-70.07375
118195312.5,-70.02873
118205078.125,-70.1018
118214843.75,-70.04169
118224609.375,-70.05457
118234375.0,-70.10395
118244140.625,-70.098564
118253906.25,-70.08143
118263671.875,-70.08723
118273437.5,-70.10719
118283203.125,-70.08751
118292968.75,-70.083755
118302734.375,-70.07836
118312500.0,-70.11157
118322265.625,-70.1644
118332031.25,-70.14357
118341796.875,-70.157135
118351562.5,-70.10096
118361328.125,-70.11531
118371093.75,-70.14375
118380859.375,-70.17402
118390625.0,-70.17385
118400390.625,-70.17394
118410156.25,-70.13927
118419921.875,-70.12368
118429687.5,-70.139854
118439453.125,-70.12308
118449218.75,-70.12586
118458984.375,-70.14884
118468750.0,-70.137794
118478515.625,-70.18933
118488281.25,-70.22099
118498046.875,-70.199524
118507812.5,-70.24484
118517578.125,-70.16289
118527343.75,-70.13467
118537109.375,-70.136345
118546875.0,-70.139465
118556640.625,-70.15936
118566406.25,-70.18841
118576171.875,-70.12262
118585937.5,-70.04137
118595703.125,-70.047066
118605468.75,-70.144966
118615234.375,-70.21028
118625000.0,-70.18869
118634765.625,-70.16529
118644531.25,-70.144516
118654296.875,-70.17645
118664062.5,-70.191795
118673828.125,-70.1543
118683593.75,-70.1159
118693359.375,-70.13706
118703125.0,-70.203415
118712890.625,-70.16785
118722656.25,-70.18001
118732421.875,-70.21308
118742187.5,-70.18651
118751953.125,-70.1583
118761718.75,-70.19181
118771484.375,-70.137436
118781250.0,-70.15666
118791015.625,-70.22641
118800781.25,-70.246574
118810546.875,-70.22637
118820312.5,-70.21895
118830078.125,-70.23293
118839843.75,-70.23757
118849609.375,-70.23319
118859375.0,-70.210625
118869140.625,-70.19771
118878906.25,-70.185844
118888671.875,-70.172615
118898437.5,-70.16068
118908203.125,-70.203255
118917968.75,-70.23685
118927734.375,-70.22813
118937500.0,-70.1758
118947265.625,-70.14103
118957031.25,-70.174355
118966796.875,-70.20025
118976562.5,-70.172905
118986328.125,-70.221214
118996093.75,-70.24243
119005859.375,-70.26664
119015625.0,-70.25785
119025390.625,-70.23979
119035156.25,-70.209496
119044921.875,-70.226135
119054687.5,-70.2387
119064453.125,-70.17212
119074218.75,-70.16687
119083984.375,-70.1995
119093750.0,-70.20795
119103515.625,-70.165474
119113281.25,-70.22092
119123046.875,-70.193146
119132812.5,-70.19181
119142578.125,-70.2118
119152343.75,-70.1677
119162109.375,-70.1279
119171875.0,-70.1252
119181640.625,-70.175804
119191406.25,-70.19052
119201171.875,-70.2156
119210937.5,-70.20099
119220703.125,-70.16986
119230468.75,-70.1773
119240234.375,-70.21518
119250000.0,-70.13137
119259765.625,-70.17201
119269531.25,-70.235794
119279296.875,-70.17754
119289062.5,-70.17503
119298828.125,-70.21371
119308593.75,-70.23431
119318359.375,-70.252396
119328125.0,-70.25407
119337890.625,-70.22589
119347656.25,-70.21241
119357421.875,-70.217834
119367187.5,-70.23997
119376953.125,-70.19027
119386718.75,-70.197975
119396484.375,-70.22262
119406250.0,-70.23999
119416015.625,-70.20566
119425781.25,-70.24053
119435546.875,-70.26107
119445312.5,-70.24724
119455078.125,-70.17556
119464843.75,-70.139015
119474609.375,-70.192726
119484375.0,-70.204865
119494140.625,-70.18282
119503906.25,-70.20813
119513671.875,-70.21063
119523437.5,-70.24866
119533203.125,-70.205795
119542968.75,-70.235535
119552734.375,-70.23462
119562500.0,-70.20019
119572265.625,-70.245865
119582031.25,-70.20687
119591796.875,-70.15551
119601562.5,-70.246544
119611328.125,-70.220055
119621093.75,-70.18525
119630859.375,-70.181915
119640625.0,-70.23164
119650390.625,-70.258965
119660156.25,-70.24382
119669921.875,-70.2276
119679687.5,-70.236755
119689453.125,-70.219894
119699218.75,-70.18449
119708984.375,-70.2073
119718750.0,-70.29651
119728515.625,-70.22783
119738281.25,-70.200226
119748046.875,-70.23844
119757812.5,-70.21475
119767578.125,-70.22432
119777343.75,-70.18878
119787109.375,-70.18586
119796875.0,-70.25987
119806640.625,-70.20333
119816406.25,-70.21968
119826171.875,-70.29468
119835937.5,-70.274574
119845703.125,-70.27822
119855468.75,-70.24243
119865234.375,-70.247795
119875000.0,-70.28299
119884765.625,-70.231316
119894531.25,-70.24205
119904296.875,-70.27723
119914062.5,-70.20938
119923828.125,-70.16196
119933593.75,-70.20673
119943359.375,-70.256355
119953125.0,-70.261246
119962890.625,-70.191605
119972656.25,-70.202774
119982421.875,-70.15078
119992187.5,-66.22158
120001953.125,-63.841633
120011718.75,-68.619316
120021484.375,-70.16058
120031250.0,-70.19007
120041015.625,-70.185036
120050781.25,-70.128426
120060546.875,-70.16586
120070312.5,-70.2495
120080078.125,-70.23639
120089843.75,-70.179886
120099609.375,-70.16532
120109375.0,-70.22572
120119140.625,-70.237206
120128906.25,-70.23731
120138671.875,-70.22304
120148437.5,-70.22836
120158203.125,-70.25727
120167968.75,-70.235016
120177734.375,-70.16562
120187500.0,-70.17534
120197265.625,-70.177315
120207031.25,-70.192726
120216796.875,-70.20976
120226562.5,-70.1847
120236328.125,-70.21015
120246093.75,-70.21902
120255859.375,-70.269135
120265625.0,-70.22244
120275390.625,-70.20969
120285156.25,-70.23749
120294921.875,-70.2384
120304687.5,-70.19766
120314453.125,-70.20094
120324218.75,-70.23357
120333984.375,-70.22743
120343750.0,-70.23821
120353515.625,-70.25012
120363281.25,-70.24463
120373046.875,-70.241
120382812.5,-70.262505
120392578.125,-70.23255
120402343.75,-70.18764
120412109.375,-70.158676
120421875.0,-70.22829
120431640.625,-70.247055
120441406.25,-70.19288
120451171.875,-70.18913
120460937.5,-70.20965
120470703.125,-70.18691
120480468.75,-70.18053
120490234.375,-70.21049
120500000.0,-70.21142
120509765.625,-70.19617
120519531.25,-70.187485
120529296.875,-70.15557
120539062.5,-70.16557
120548828.125,-70.16138
120558593.75,-70.210464
120568359.375,-70.24136
120578125.0,-70.20269
120587890.625,-70.18578
120597656.25,-70.20888
120607421.875,-70.20504
120617187.5,-70.24018
120626953.125,-70.30812
120636718.75,-70.241455
120646484.375,-70.22127
120656250.0,-70.18874
120666015.625,-70.223404
120675781.25,-70.23485
120685546.875,-70.15489
120695312.5,-70.1067
120705078.125,-70.12977
120714843.75,-70.17614
120724609.375,-70.19832
120734375.0,-70.22346
120744140.625,-70.22709
120753906.25,-70.211
120763671.875,-70.165886
120773437.5,-70.210464
120783203.125,-70.22727
120792968.75,-70.22424
120802734.375,-70.187164
120812500.0,-70.18791
120822265.625,-70.16897
120832031.25,-70.19909
120841796.875,-70.18053
120851562.5,-70.18755
120861328.125,-70.18103
120871093.75,-70.188416
120880859.375,-70.21362
120890625.0,-70.207565
120900390.625,-70.192505
120910156.25,-70.19763
120919921.875,-70.1683
120929687.5,-70.21006
120939453.125,-70.19288
120949218.75,-70.03973
120958984.375,-69.63529
120968750.0,-69.53888
120978515.625,-69.95147
120988281.25,-70.11919
120998046.875,-70.17453
121007812.5,-70.15208
121017578.125,-70.144264
121027343.75,-70.158455
121037109.375,-70.19395
121046875.0,-70.19681
121056640.625,-70.2062
121066406.25,-70.19168
121076171.875,-70.193756
121085937.5,-70.20231
121095703.125,-70.24466
121105468.75,-70.25502
121115234.375,-70.201065
121125000.0,-70.23922
121134765.625,-70.23808
121144531.25,-70.182556
121154296.875,-70.177376
121164062.5,-70.1803
121173828.125,-70.22592
121183593.75,-70.192856
121193359.375,-70.16608
121203125.0,-70.17801
121212890.625,-70.19795
121222656.25,-70.156586
121232421.875,-70.15154
121242187.5,-70.210754
121251953.125,-70.18825
121261718.75,-70.204605
121271484.375,-70.21245
121281250.0,-70.2044
121291015.625,-70.20784
121300781.25,-70.17451
121310546.875,-70.21817
121320312.5,-70.21707
121330078.125,-70.19412
121339843.75,-70.193184
121349609.375,-70.259476
121359375.0,-70.2402
121369140.625,-70.20675
121378906.25,-70.16066
121388671.875,-70.14682
121398437.5,-70.177795
121408203.125,-70.14228
121417968.75,-70.156166
121427734.375,-70.13452
121437500.0,-70.120346
121447265.625,-70.14638
121457031.25,-70.151794
121466796.875,-70.18634
121476562.5,-70.16809
121486328.125,-70.17907
121496093.75,-70.23542
121505859.375,-70.270615
121515625.0,-70.209076
121525390.625,-70.14208
121535156.25,-70.17728
121544921.875,-70.20491
121554687.5,-70.192696
121564453.125,-70.19998
121574218.75,-70.207954
121583984.375,-70.211685
121593750.0,-70.22291
121603515.625,-70.22149
121613281.25,-70.24573
121623046.875,-70.247635
121632812.5,-70.18077
121642578.125,-70.160355
121652343.75,-70.22533
121662109.375,-70.207184
121671875.0,-70.26874
121681640.625,-70.23741
121691406.25,-70.140625
121701171.875,-70.139145
121710937.5,-70.17772
121720703.125,-70.177055
121730468.75,-70.22477
121740234.375,-70.259605
121750000.0,-70.22428
121759765.625,-70.24791
121769531.25,-70.24505
121779296.875,-70.19769
121789062.5,-70.22621
121798828.125,-70.27752
121808593.75,-70.26016
121818359.375,-70.22601
121828125.0,-70.21565
121837890.625,-70.16931
121847656.25,-70.18026
121857421.875,-70.23401
121867187.5,-70.21193
121876953.125,-70.20969
121886718.75,-70.20711
121896484.375,-70.20686
121906250.0,-70.24686
121916015.625,-70.21367
121925781.25,-70.18823
121935546.875,-70.2208
121945312.5,-70.21621
121955078.125,-70.23995
121964843.75,-70.30929
121974609.375,-70.28873
121984375.0,-70.27882
121994140.625,-70.282455
122003906.25,-70.242584
122013671.875,-70.24196
122023437.5,-70.27815
122033203.125,-70.25124
122042968.75,-70.27539
122052734.375,-70.290405
122062500.0,-70.2254
122072265.625,-70.19828
122082031.25,-70.164955
122091796.875,-70.198944
122101562.5,-70.27038
122111328.125,-70.2881
122121093.75,-70.25803
122130859.375,-70.2324
122140625.0,-70.24958
122150390.625,-70.23691
122160156.25,-70.234436
122169921.875,-70.26219
122179687.5,-70.24506
122189453.125,-70.27346
122199218.75,-70.253075
122208984.375,-70.26808
122218750.0,-70.2816
122228515.625,-70.258224
122238281.25,-70.25826
122248046.875,-70.25664
122257812.5,-70.25926
122267578.125,-70.22808
122277343.75,-70.220245
122287109.375,-70.24742
122296875.0,-70.25436
122306640.625,-70.21101
122316406.25,-70.2152
122326171.875,-70.24209
122335937.5,-70.26364
122345703.125,-70.237564
122355468.75,-70.26729
122365234.375,-70.2556
122375000.0,-70.293396
122384765.625,-70.28885
122394531.25,-70.233826
122404296.875,-70.23716
122414062.5,-70.25283
122423828.125,-70.25259
122433593.75,-70.24012
122443359.375,-70.246445
122453125.0,-70.24144
122462890.625,-70.24722
122472656.25,-70.28001
122482421.875,-70.27753
122492187.5,-70.290405
122501953.125,-70.2327
122511718.75,-70.21378
122521484.375,-70.27535
122531250.0,-70.319336
122541015.625,-70.29438
122550781.25,-70.27383
122560546.875,-70.25764
122570312.5,-70.29618
122580078.125,-70.24612
122589843.75,-70.18854
122599609.375,-70.231186
122609375.0,-70.22533
122619140.625,-70.21074
122628906.25,-70.277794
122638671.875,-70.26022
122648437.5,-70.29229
122658203.125,-70.22819
122667968.75,-70.15823
122677734.375,-70.204346
122687500.0,-70.26364
122697265.625,-70.253815
122707031.25,-70.20288
122716796.875,-70.19969
122726562.5,-70.23215
122736328.125,-70.28446
122746093.75,-70.25207
122755859.375,-70.22852
122765625.0,-70.25445
122775390.625,-70.27048
122785156.25,-70.27658
122794921.875,-70.27192
122804687.5,-70.24407
122814453.125,-70.25043
122824218.75,-70.27261
122833984.375,-70.247154
122843750.0,-70.182655
122853515.625,-70.20621
122863281.25,-70.212524
122873046.875,-70.226776
122882812.5,-70.237076
122892578.125,-70.21742
122902343.75,-70.207924
122912109.375,-70.17523
122921875.0,-70.22224
122931640.625,-70.24945
122941406.25,-70.26843
122951171.875,-70.23279
122960937.5,-70.257324
122970703.125,-70.26895
122980468.75,-70.288345
122990234.375,-70.258675
123000000.0,-70.22023
123009765.625,-70.24092
123019531.25,-70.22406
123029296.875,-70.256935
123039062.5,-70.26718
123048828.125,-70.233574
123058593.75,-70.27436
123068359.375,-70.28721
123078125.0,-70.24567
123087890.625,-70.25291
123097656.25,-70.23613
123107421.875,-70.202324
123117187.5,-70.22484
123126953.125,-70.21996
123136718.75,-70.21555
123146484.375,-70.21513
123156250.0,-70.242935
123166015.625,-70.27466
123175781.25,-70.21606
123185546.875,-70.24167
123195312.5,-70.23419
123205078.125,-70.15981
123214843.75,-70.14189
123224609.375,-70.16796
123234375.0,-70.14336
123244140.625,-70.17712
123253906.25,-70.19843
123263671.875,-70.16652
123273437.5,-70.19739
123283203.125,-70.25432
123292968.75,-70.17129
123302734.375,-70.121445
123312500.0,-70.12744
123322265.625,-69.98064
123332031.25,-69.78802
123341796.875,-69.83567
123351562.5,-70.04848
123361328.125,-70.174706
123371093.75,-70.22533
123380859.375,-70.18869
123390625.0,-70.19321
123400390.625,-70.158104
123410156.25,-70.185074
123419921.875,-70.237625
123429687.5,-70.24263
123439453.125,-70.20178
123449218.75,-70.23849
123458984.375,-70.25946
123468750.0,-70.25761
123478515.625,-70.23146
123488281.25,-70.20961
123498046.875,-70.174904
123507812.5,-70.18263
123517578.125,-70.2259
123527343.75,-70.225464
123537109.375,-70.2372
123546875.0,-70.21301
123556640.625,-70.20423
123566406.25,-70.153015
123576171.875,-70.21307
123585937.5,-70.1501
123595703.125,-70.16269
123605468.75,-70.2076
123615234.375,-70.234314
123625000.0,-70.200386
123634765.625,-70.23797
123644531.25,-70.25839
123654296.875,-70.25058
123664062.5,-70.20439
123673828.125,-70.201965
123683593.75,-70.19495
123693359.375,-70.174835
123703125.0,-70.192795
123712890.625,-70.191574
123722656.25,-70.22506
123732421.875,-70.2314
123742187.5,-70.235504
123751953.125,-70.276085
123761718.75,-70.234055
123771484.375,-70.2423
123781250.0,-70.23029
123791015.625,-70.16382
123800781.25,-70.14637
123810546.875,-70.1951
123820312.5,-70.23778
123830078.125,-70.25789
123839843.75,-70.22224
123849609.375,-70.154274
123859375.0,-70.17049
123869140.625,-70.19081
123878906.25,-70.2223
123888671.875,-70.19488
123898437.5,-70.18703
123908203.125,-70.21241
123917968.75,-70.19599
123927734.375,-70.199005
123937500.0,-70.22773
123947265.625,-70.22748
123957031.25,-70.1982
123966796.875,-70.204094
123976562.5,-70.223915
123986328.125,-70.19591
123996093.75,-70.18429
124005859.375,-70.24669
124015625.0,-70.27145
124025390.625,-70.242775
124035156.25,-70.2132
124044921.875,-70.16211
124054687.5,-70.14878
124064453.125,-70.15671
124074218.75,-70.19875
124083984.375,-70.215256
124093750.0,-70.2099
124103515.625,-70.24175
124113281.25,-70.24029
124123046.875,-70.19875
124132812.5,-70.18221
124142578.125,-70.17407
124152343.75,-70.22004
124162109.375,-70.24272
124171875.0,-70.2881
124181640.625,-70.219215
124191406.25,-70.22882
124201171.875,-70.21077
124210937.5,-70.19841
124220703.125,-70.24816
124230468.75,-70.233475
124240234.375,-70.273544
124250000.0,-70.26826
124259765.625,-70.198135
124269531.25,-70.187164
124279296.875,-70.2163
124289062.5,-70.239426
124298828.125,-70.26636
124308593.75,-70.28177
124318359.375,-70.224754
124328125.0,-70.199524
124337890.625,-70.213196
124347656.25,-70.23882
124357421.875,-70.25065
124367187.5,-70.21606
124376953.125,-70.23259
124386718.75,-70.25529
124396484.375,-70.20593
124406250.0,-70.21567
124416015.625,-70.230225
124425781.25,-70.28373
124435546.875,-70.282364
124445312.5,-70.20216
124455078.125,-70.16143
124464843.75,-70.20152
124474609.375,-70.201324
124484375.0,-70.203026
124494140.625,-70.23341
124503906.25,-70.18262
124513671.875,-70.17069
124523437.5,-70.19722
124533203.125,-70.24053
124542968.75,-70.22464
124552734.375,-70.27109
124562500.0,-70.25882
124572265.625,-70.220825
124582031.25,-70.18269
124591796.875,-70.25021
124601562.5,-70.28032
124611328.125,-70.3225
124621093.75,-70.2791
124630859.375,-70.24932
124640625.0,-70.24497
124650390.625,-70.213806
124660156.25,-70.20331
124669921.875,-70.2347
124679687.5,-70.2658
124689453.125,-70.26058
124699218.75,-70.21631
124708984.375,-70.188705
124718750.0,-70.2468
124728515.625,-70.27654
124738281.25,-70.27058
124748046.875,-70.25844
124757812.5,-70.25497
124767578.125,-70.23204
124777343.75,-70.20211
124787109.375,-70.21102
124796875.0,-70.22895
124806640.625,-70.20478
124816406.25,-70.2048
124826171.875,-70.2224
124835937.5,-70.26024
124845703.125,-70.24968
124855468.75,-70.2264
124865234.375,-70.22088
124875000.0,-70.23314
124884765.625,-70.24188
124894531.25,-70.26776
124904296.875,-70.223854
124914062.5,-70.21144
124923828.125,-70.31443
124933593.75,-70.286224
124943359.375,-70.23715
124953125.0,-70.21563
124962890.625,-70.24743
124972656.25,-70.20802
124982421.875,-70.203865
124992187.5,-70.20482
125001953.125,-70.15296
125011718.75,-70.22445
125021484.375,-70.284
125031250.0,-70.29089
125041015.625,-70.27038
125050781.25,-70.21737
125060546.875,-70.22895
125070312.5,-70.259575
125080078.125,-70.22748
125089843.75,-70.23879
125099609.375,-70.25465
125109375.0,-70.259544
125119140.625,-70.24062
125128906.25,-70.24597
125138671.875,-70.233444
125148437.5,-70.215195
125158203.125,-70.19239
125167968.75,-70.20869
125177734.375,-70.225555
125187500.0,-70.27015
125197265.625,-70.29881
125207031.25,-70.20132
125216796.875,-70.1962
125226562.5,-70.24591
125236328.125,-70.24084
125246093.75,-70.23047
125255859.375,-70.23086
125265625.0,-70.2184
125275390.625,-70.238335
125285156.25,-70.195366
125294921.875,-70.233444
125304687.5,-70.26228
125314453.125,-70.26843
125324218.75,-70.2641
125333984.375,-70.21621
125343750.0,-70.19271
125353515.625,-70.25172
125363281.25,-70.22091
125373046.875,-70.24176
125382812.5,-70.21895
125392578.125,-70.20482
125402343.75,-70.23322
125412109.375,-70.240616
125421875.0,-70.230774
125431640.625,-70.23723
125441406.25,-70.26677
125451171.875,-70.25474
125460937.5,-70.2608
125470703.125,-70.21584
125480468.75,-70.20604
125490234.375,-70.201805
125500000.0,-70.22383
125509765.625,-70.250496
125519531.25,-70.265976
125529296.875,-70.27497
125539062.5,-70.24857
125548828.125,-70.279884
125558593.75,-70.2472
125568359.375,-70.29317
125578125.0,-70.283844
125587890.625,-70.24193
125597656.25,-70.21677
125607421.875,-70.244896
125617187.5,-70.24552
125626953.125,-70.24298
125636718.75,-70.22395
125646484.375,-70.20857
125656250.0,-70.28585
125666015.625,-70.244385
125675781.25,-70.17996
125685546.875,-70.22127
125695312.5,-70.17965
125705078.125,-70.1101
125714843.75,-70.12832
125724609.375,-70.17999
125734375.0,-70.2478
125744140.625,-70.29715
125753906.25,-70.33298
125763671.875,-70.313545
125773437.5,-70.27631
125783203.125,-70.24462
125792968.75,-70.28418
125802734.375,-70.277374
125812500.0,-70.27427
125822265.625,-70.27739
125832031.25,-70.27788
125841796.875,-70.22936
125851562.5,-70.226814
125861328.125,-70.2514
125871093.75,-70.29913
125880859.375,-70.26298
125890625.0,-70.29814
125900390.625,-70.24481
125910156.25,-70.24597
125919921.875,-70.30609
125929687.5,-70.321594
125939453.125,-70.25625
125949218.75,-70.23859
125958984.375,-70.236786
125968750.0,-70.271545
125978515.625,-70.30494
125988281.25,-70.2905
125998046.875,-70.26335
126007812.5,-70.27247
126017578.125,-70.29819
126027343.75,-70.29402
126037109.375,-70.24724
126046875.0,-70.25314
126056640.625,-70.24779
126066406.25,-70.278534
126076171.875,-70.28988
126085937.5,-70.30865
126095703.125,-70.25451
126105468.75,-70.25455
126115234.375,-70.29105
126125000.0,-70.233246
126134765.625,-70.24843
126144531.25,-70.24164
126154296.875,-70.27751
126164062.5,-70.2909
126173828.125,-70.30444
126183593.75,-70.310234
126193359.375,-70.306725
126203125.0,-70.30198
126212890.625,-70.283066
126222656.25,-70.33372
126232421.875,-70.30379
126242187.5,-70.29487
126251953.125,-70.26982
126261718.75,-70.27093
126271484.375,-70.25813
126281250.0,-70.292595
126291015.625,-70.25855
126300781.25,-70.24831
126310546.875,-70.32981
126320312.5,-70.319244
126330078.125,-70.2935
126339843.75,-70.240265
126349609.375,-70.26237
126359375.0,-70.26643
126369140.625,-70.260056
126378906.25,-70.25995
126388671.875,-70.288994
126398437.5,-70.24426
126408203.125,-70.24931
126417968.75,-70.215645
126427734.375,-70.21609
126437500.0,-70.21634
126447265.625,-70.23194
126457031.25,-70.21996
126466796.875,-70.24722
126476562.5,-70.28419
126486328.125,-70.28289
126496093.75,-70.26037
126505859.375,-70.22712
126515625.0,-70.26816
126525390.625,-70.27665
126535156.25,-70.21205
126544921.875,-70.26189
126554687.5,-70.24857
126564453.125,-70.26138
126574218.75,-70.27565
126583984.375,-70.273865
126593750.0,-70.24075
126603515.625,-70.27041
126613281.25,-70.25662
126623046.875,-70.25328
126632812.5,-70.2443
126642578.125,-70.25897
126652343.75,-70.2147
126662109.375,-70.216995
126671875.0,-70.22941
126681640.625,-70.21922
126691406.25,-70.30191
126701171.875,-70.3264
126710937.5,-70.23747
126720703.125,-70.19924
126730468.75,-70.15999
126740234.375,-70.18138
126750000.0,-70.23305
126759765.625,-70.21245
126769531.25,-70.252975
126779296.875,-70.272064
126789062.5,-70.254295
126798828.125,-70.26602
126808593.75,-70.3028
126818359.375,-70.22861
126828125.0,-70.23085
126837890.625,-70.27897
126847656.25,-70.32271
126857421.875,-70.25809
126867187.5,-70.225075
126876953.125,-70.224174
126886718.75,-70.21163
126896484.375,-70.220505
126906250.0,-70.23352
126916015.625,-70.24265
126925781.25,-70.24635
126935546.875,-70.19547
126945312.5,-70.252525
126955078.125,-70.24126
126964843.75,-70.279625
126974609.375,-70.313965
126984375.0,-70.28764
126994140.625,-70.277054
127003906.25,-70.23161
127013671.875,-70.28983
127023437.5,-70.26881
127033203.125,-70.26629
127042968.75,-70.297104
127052734.375,-70.269806
127062500.0,-70.23329
127072265.625,-70.20892
127082031.25,-70.24703
127091796.875,-70.27878
127101562.5,-70.24338
127111328.125,-70.2032
127121093.75,-70.22863
127130859.375,-70.23062
127140625.0,-70.28769
127150390.625,-70.2343
127160156.25,-70.226654
127169921.875,-70.2619
127179687.5,-70.250694
127189453.125,-70.26822
127199218.75,-70.27192
127208984.375,-70.20712
127218750.0,-70.24707
127228515.625,-70.2072
127238281.25,-70.19016
127248046.875,-70.23643
127257812.5,-70.21716
127267578.125,-70.2485
127277343.75,-70.33485
127287109.375,-70.30525
127296875.0,-70.272064
127306640.625,-70.2484
127316406.25,-70.29021
127326171.875,-70.280106
127335937.5,-70.26219
127345703.125,-70.24954
127355468.75,-70.26284
127365234.375,-70.28647
127375000.0,-70.267166
127384765.625,-70.24223
127394531.25,-70.219215
127404296.875,-70.20779
127414062.5,-70.217476
127423828.125,-70.243904
127433593.75,-70.2391
127443359.375,-70.29019
127453125.0,-70.27188
127462890.625,-70.20276
127472656.25,-70.238495
127482421.875,-70.275505
127492187.5,-70.230225
127501953.125,-70.240204
127511718.75,-70.19825
127521484.375,-70.20261
127531250.0,-70.27873
127541015.625,-70.29435
127550781.25,-70.22923
127560546.875,-70.22119
127570312.5,-70.27502
127580078.125,-70.265076
127589843.75,-70.229614
127599609.375,-70.28829
127609375.0,-70.21501
127619140.625,-70.19536
127628906.25,-70.19994
127638671.875,-70.23936
127648437.5,-70.2668
127658203.125,-70.25229
127667968.75,-70.18186
127677734.375,-70.12506
127687500.0,-70.19725
127697265.625,-70.21745
127707031.25,-70.189316
127716796.875,-70.220024
127726562.5,-70.280396
127736328.125,-70.27854
127746093.75,-70.22534
127755859.375,-70.23713
127765625.0,-70.23503
127775390.625,-70.2453
127785156.25,-70.224205
127794921.875,-70.250595
127804687.5,-70.222916
127814453.125,-70.227295
127824218.75,-70.24365
127833984.375,-70.27208
127843750.0,-70.223114
127853515.625,-70.23934
127863281.25,-70.26784
127873046.875,-70.21939
127882812.5,-70.24297
127892578.125,-70.2687
127902343.75,-70.2144
127912109.375,-70.20119
127921875.0,-70.21771
127931640.625,-70.253555
127941406.25,-70.27101
127951171.875,-70.22574
127960937.5,-70.22825
127970703.125,-70.16634
127980468.75,-70.218216
127990234.375,-70.209015
