Frequency (Hz),PSD (dBfs)
85500000.0,-74.08719
85502500.0,-74.43777
85505000.0,-74.53398
85507500.0,-74.4887
85510000.0,-74.64733
85512500.0,-74.58869
85515000.0,-74.57997
85517500.0,-74.57814
85520000.0,-74.556076
85522500.0,-74.60127
85525000.0,-74.5624
85527500.0,-74.55694
85530000.0,-74.59649
85532500.0,-74.54248
85535000.0,-74.65365
85537500.0,-74.639824
85540000.0,-74.61621
85542500.0,-74.57394
85545000.0,-74.53534
85547500.0,-74.49698
85550000.0,-74.64719
85552500.0,-74.61832
85555000.0,-74.616066
85557500.0,-74.63433
85560000.0,-74.65587
85562500.0,-74.56978
85565000.0,-74.412865
85567500.0,-74.49626
85570000.0,-74.49645
85572500.0,-74.5114
85575000.0,-74.50448
85577500.0,-74.575165
85580000.0,-74.65989
85582500.0,-74.57096
85585000.0,-74.53895
85587500.0,-74.58327
85590000.0,-74.4651
85592500.0,-74.39378
85595000.0,-74.53499
85597500.0,-74.54223
85600000.0,-74.51173
85602500.0,-74.49947
85605000.0,-74.5678
85607500.0,-74.624565
85610000.0,-74.58839
85612500.0,-74.56236
85615000.0,-74.52464
85617500.0,-74.562225
85620000.0,-74.51313
85622500.0,-74.53693
85625000.0,-74.594505
85627500.0,-74.58764
85630000.0,-74.699844
85632500.0,-74.58979
85635000.0,-74.524506
85637500.0,-74.4785
85640000.0,-74.493385
85642500.0,-74.6148
85645000.0,-74.64704
85647500.0,-74.64853
85650000.0,-74.56631
85652500.0,-74.55717
85655000.0,-74.465645
85657500.0,-74.45725
85660000.0,-74.570656
85662500.0,-74.59325
85665000.0,-74.52701
85667500.0,-74.53725
85670000.0,-74.5188
85672500.0,-74.48296
85675000.0,-74.43171
85677500.0,-74.47795
85680000.0,-74.50096
85682500.0,-74.579384
85685000.0,-74.5677
85687500.0,-74.46712
85690000.0,-74.6139
85692500.0,-74.57103
85695000.0,-74.52294
85697500.0,-74.647995
85700000.0,-74.65796
85702500.0,-74.67667
85705000.0,-74.66142
85707500.0,-74.56893
85710000.0,-74.55741
85712500.0,-74.4621
85715000.0,-74.52277
85717500.0,-74.544014
85720000.0,-74.55934
85722500.0,-74.57457
85725000.0,-74.58431
85727500.0,-74.58238
85730000.0,-74.59156
85732500.0,-74.66134
85735000.0,-74.54606
85737500.0,-74.54995
85740000.0,-74.63527
85742500.0,-74.523636
85745000.0,-74.4357
85747500.0,-74.47631
85750000.0,-74.536446
85752500.0,-74.577805
85755000.0,-74.43772
85757500.0,-74.540085
85760000.0,-74.67881
85762500.0,-74.60408
85765000.0,-74.5413
85767500.0,-74.53913
85770000.0,-74.562614
85772500.0,-74.56176
85775000.0,-74.52252
85777500.0,-74.55207
85780000.0,-74.57639
85782500.0,-74.6547
85785000.0,-74.72713
85787500.0,-74.66321
85790000.0,-74.62295
85792500.0,-74.54203
85795000.0,-74.61111
85797500.0,-74.65883
85800000.0,-74.64205
85802500.0,-74.6165
85805000.0,-74.60038
85807500.0,-74.62973
85810000.0,-74.64036
85812500.0,-74.50267
85815000.0,-74.46729
85817500.0,-74.607254
85820000.0,-74.71068
85822500.0,-74.674446
85825000.0,-74.63555
85827500.0,-74.59589
85830000.0,-74.506134
85832500.0,-74.49442
85835000.0,-74.483086
85837500.0,-74.48369
85840000.0,-74.48956
85842500.0,-74.637054
85845000.0,-74.566795
85847500.0,-74.51459
85850000.0,-74.55678
85852500.0,-74.45845
85855000.0,-74.46854
85857500.0,-74.47816
85860000.0,-74.55608
85862500.0,-74.598434
85865000.0,-74.6386
85867500.0,-74.5576
85870000.0,-74.5451
85872500.0,-74.57379
85875000.0,-74.589226
85877500.0,-74.541595
85880000.0,-74.60709
85882500.0,-74.55229
85885000.0,-74.47592
85887500.0,-74.55859
85890000.0,-74.64546
85892500.0,-74.531876
85895000.0,-74.46307
85897500.0,-74.43305
85900000.0,-74.63935
85902500.0,-74.59236
85905000.0,-74.55939
85907500.0,-74.614876
85910000.0,-74.634155
85912500.0,-74.62999
85915000.0,-74.58308
85917500.0,-74.534
85920000.0,-74.463905
85922500.0,-74.30997
85925000.0,-74.1646
85927500.0,-74.08478
85930000.0,-74.20824
85932500.0,-74.38416
85935000.0,-74.362724
85937500.0,-74.46987
85940000.0,-74.48827
85942500.0,-74.41475
85945000.0,-74.48319
85947500.0,-74.48432
85950000.0,-74.55678
85952500.0,-74.542725
85955000.0,-74.53102
85957500.0,-74.58804
85960000.0,-74.706635
85962500.0,-74.65137
85965000.0,-74.552635
85967500.0,-74.36408
85970000.0,-74.34657
85972500.0,-74.5661
85975000.0,-74.50772
85977500.0,-74.48715
85980000.0,-74.511536
85982500.0,-74.51074
85985000.0,-74.54988
85987500.0,-74.55244
85990000.0,-74.62658
85992500.0,-74.62676
85995000.0,-74.735634
85997500.0,-70.854706
86000000.0,-66.44823
86002500.0,-70.817635
86005000.0,-74.57188
86007500.0,-74.65222
86010000.0,-74.61883
86012500.0,-74.58897
86015000.0,-74.63601
86017500.0,-74.67963
86020000.0,-74.55795
86022500.0,-74.5278
86025000.0,-74.60788
86027500.0,-74.615814
86030000.0,-74.60465
86032500.0,-74.58905
86035000.0,-74.50507
86037500.0,-74.63197
86040000.0,-74.68019
86042500.0,-74.56788
86045000.0,-74.56742
86047500.0,-74.56559
86050000.0,-74.56324
86052500.0,-74.53871
86055000.0,-74.549545
86057500.0,-74.52699
86060000.0,-74.487526
86062500.0,-74.54894
86065000.0,-74.18913
86067500.0,-73.64657
86070000.0,-73.26203
86072500.0,-71.907005
86075000.0,-70.60553
86077500.0,-71.54672
86080000.0,-72.8428
86082500.0,-73.60855
86085000.0,-74.34276
86087500.0,-74.460365
86090000.0,-74.42851
86092500.0,-74.41323
86095000.0,-74.598656
86097500.0,-74.725746
86100000.0,-74.615395
86102500.0,-74.62029
86105000.0,-74.57904
86107500.0,-74.55267
86110000.0,-74.57983
86112500.0,-74.493805
86115000.0,-74.62297
86117500.0,-74.59837
86120000.0,-74.56879
86122500.0,-74.63306
86125000.0,-74.61687
86127500.0,-74.62294
86130000.0,-74.69016
86132500.0,-74.627014
86135000.0,-74.56096
86137500.0,-74.54893
86140000.0,-74.565025
86142500.0,-74.55612
86145000.0,-74.47845
86147500.0,-74.57198
86150000.0,-74.620255
86152500.0,-74.63498
86155000.0,-74.686874
86157500.0,-74.709694
86160000.0,-74.68335
86162500.0,-74.60278
86165000.0,-74.49428
86167500.0,-74.46313
86170000.0,-74.452255
86172500.0,-74.517914
86175000.0,-74.59901
86177500.0,-74.59441
86180000.0,-74.60434
86182500.0,-74.75104
86185000.0,-74.74529
86187500.0,-74.58449
86190000.0,-74.58498
86192500.0,-74.55497
86195000.0,-74.62746
86197500.0,-74.6623
86200000.0,-74.60183
86202500.0,-74.55422
86205000.0,-74.586075
86207500.0,-74.59752
86210000.0,-74.568695
86212500.0,-74.47093
86215000.0,-74.426895
86217500.0,-74.48712
86220000.0,-74.48311
86222500.0,-74.45851
86225000.0,-74.55009
86227500.0,-74.58156
86230000.0,-74.435265
86232500.0,-74.43265
86235000.0,-74.52675
86237500.0,-74.59358
86240000.0,-74.64849
86242500.0,-74.68916
86245000.0,-74.62862
86247500.0,-74.58784
86250000.0,-74.61102
86252500.0,-74.66539
86255000.0,-74.65674
86257500.0,-74.621445
86260000.0,-74.62316
86262500.0,-74.67807
86265000.0,-74.67746
86267500.0,-74.6659
86270000.0,-74.70163
86272500.0,-74.61152
86275000.0,-74.69081
86277500.0,-74.640785
86280000.0,-74.644745
86282500.0,-74.752144
86285000.0,-74.617165
86287500.0,-74.5339
86290000.0,-74.542046
86292500.0,-74.56798
86295000.0,-74.54809
86297500.0,-74.64272
86300000.0,-74.795876
86302500.0,-74.632996
86305000.0,-74.601295
86307500.0,-74.62908
86310000.0,-74.57233
86312500.0,-74.585945
86315000.0,-74.64324
86317500.0,-74.58631
86320000.0,-74.63727
86322500.0,-74.650406
86325000.0,-74.61931
86327500.0,-74.68494
86330000.0,-74.608
86332500.0,-74.57829
86335000.0,-74.58966
86337500.0,-74.73216
86340000.0,-74.73314
86342500.0,-74.63601
86345000.0,-74.57047
86347500.0,-74.54056
86350000.0,-74.502556
86352500.0,-74.54804
86355000.0,-74.579
86357500.0,-74.607025
86360000.0,-74.65144
86362500.0,-74.68054
86365000.0,-74.5857
86367500.0,-74.60072
86370000.0,-74.55434
86372500.0,-74.62371
86375000.0,-74.68249
86377500.0,-74.702484
86380000.0,-74.649445
86382500.0,-74.71864
86385000.0,-74.67726
86387500.0,-74.62684
86390000.0,-74.71887
86392500.0,-74.61863
86395000.0,-74.48424
86397500.0,-74.57059
86400000.0,-74.6734
86402500.0,-74.66672
86405000.0,-74.65201
86407500.0,-74.5733
86410000.0,-74.60056
86412500.0,-74.62173
86415000.0,-74.56716
86417500.0,-74.52539
86420000.0,-74.53797
86422500.0,-74.665436
86425000.0,-74.663475
86427500.0,-74.5927
86430000.0,-74.604225
86432500.0,-74.64138
86435000.0,-74.55904
86437500.0,-74.5789
86440000.0,-74.62893
86442500.0,-74.54206
86445000.0,-74.622055
86447500.0,-74.63579
86450000.0,-74.58844
86452500.0,-74.60442
86455000.0,-74.557045
86457500.0,-74.544365
86460000.0,-74.62918
86462500.0,-74.565636
86465000.0,-74.58713
86467500.0,-74.50721
86470000.0,-74.564575
86472500.0,-74.61082
86475000.0,-74.65441
86477500.0,-74.7102
86480000.0,-74.679245
86482500.0,-74.63666
86485000.0,-74.71548
86487500.0,-74.61957
86490000.0,-74.54944
86492500.0,-74.61721
86495000.0,-74.705956
86497500.0,-74.66496
86500000.0,-74.63305
86502500.0,-74.654465
86505000.0,-74.60129
86507500.0,-74.6292
86510000.0,-74.639404
86512500.0,-74.66819
86515000.0,-74.64817
86517500.0,-74.614395
86520000.0,-74.49064
86522500.0,-74.60429
86525000.0,-74.58777
86527500.0,-74.64754
86530000.0,-74.744316
86532500.0,-74.62628
86535000.0,-74.592285
86537500.0,-74.5327
86540000.0,-74.516136
86542500.0,-74.53095
86545000.0,-74.588326
86547500.0,-74.603874
86550000.0,-74.70365
86552500.0,-74.75802
86555000.0,-74.595856
86557500.0,-74.61017
86560000.0,-74.60042
86562500.0,-74.640465
86565000.0,-74.57873
86567500.0,-74.57503
86570000.0,-74.546616
86572500.0,-74.59387
86575000.0,-74.56554
86577500.0,-74.63489
86580000.0,-74.58967
86582500.0,-74.69214
86585000.0,-74.64706
86587500.0,-74.692696
86590000.0,-74.69937
86592500.0,-74.638504
86595000.0,-74.6582
86597500.0,-74.77704
86600000.0,-74.8271
86602500.0,-74.781334
86605000.0,-74.68842
86607500.0,-74.55933
86610000.0,-74.6778
86612500.0,-74.606255
86615000.0,-74.57834
86617500.0,-74.66514
86620000.0,-74.616394
86622500.0,-74.64848
86625000.0,-74.75533
86627500.0,-74.686584
86630000.0,-74.661835
86632500.0,-74.72202
86635000.0,-74.65681
86637500.0,-74.670746
86640000.0,-74.62976
86642500.0,-74.560936
86645000.0,-74.67368
86647500.0,-74.71343
86650000.0,-74.653336
86652500.0,-74.5579
86655000.0,-74.653755
86657500.0,-74.71511
86660000.0,-74.71156
86662500.0,-74.76174
86665000.0,-74.8176
86667500.0,-74.6764
86670000.0,-74.70465
86672500.0,-74.63434
86675000.0,-74.58689
86677500.0,-74.6891
86680000.0,-74.65066
86682500.0,-74.610886
86685000.0,-74.63764
86687500.0,-74.672195
86690000.0,-74.7255
86692500.0,-74.75745
86695000.0,-74.59866
86697500.0,-74.585945
86700000.0,-74.70172
86702500.0,-74.64708
86705000.0,-74.55023
86707500.0,-74.662766
86710000.0,-74.71399
86712500.0,-74.630974
86715000.0,-74.62497
86717500.0,-74.59817
86720000.0,-74.549515
86722500.0,-74.64735
86725000.0,-74.61104
86727500.0,-74.75309
86730000.0,-74.67727
86732500.0,-74.55268
86735000.0,-74.59538
86737500.0,-74.64064
86740000.0,-74.65419
86742500.0,-74.71179
86745000.0,-74.833916
86747500.0,-74.69073
86750000.0,-74.37656
86752500.0,-74.53832
86755000.0,-74.60333
86757500.0,-74.6141
86760000.0,-74.64936
86762500.0,-74.74074
86765000.0,-74.71289
86767500.0,-74.62527
86770000.0,-74.64973
86772500.0,-74.50631
86775000.0,-74.52886
86777500.0,-74.58681
86780000.0,-74.64307
86782500.0,-74.65712
86785000.0,-74.76432
86787500.0,-74.66671
86790000.0,-74.76383
86792500.0,-74.75159
86795000.0,-74.70206
86797500.0,-74.702995
86800000.0,-74.65982
86802500.0,-74.61313
86805000.0,-74.56709
86807500.0,-74.514114
86810000.0,-74.48906
86812500.0,-74.514
86815000.0,-74.68913
86817500.0,-74.773254
86820000.0,-74.66946
86822500.0,-74.60845
86825000.0,-74.74196
86827500.0,-74.73755
86830000.0,-74.64364
86832500.0,-74.64067
86835000.0,-74.601204
86837500.0,-74.67338
86840000.0,-74.61406
86842500.0,-74.73334
86845000.0,-74.79425
86847500.0,-74.65471
86850000.0,-74.667496
86852500.0,-74.71813
86855000.0,-74.80098
86857500.0,-74.73277
86860000.0,-74.69153
86862500.0,-74.69638
86865000.0,-74.683105
86867500.0,-74.76163
86870000.0,-74.75691
86872500.0,-74.62193
86875000.0,-74.634384
86877500.0,-74.74694
86880000.0,-74.760704
86882500.0,-74.82128
86885000.0,-74.65286
86887500.0,-74.71518
86890000.0,-74.786026
86892500.0,-74.6955
86895000.0,-74.522964
86897500.0,-74.5411
86900000.0,-74.65207
86902500.0,-74.61269
86905000.0,-74.66348
86907500.0,-74.79511
86910000.0,-74.80461
86912500.0,-74.6672
86915000.0,-74.579666
86917500.0,-74.65298
86920000.0,-74.66005
86922500.0,-74.56784
86925000.0,-74.4978
86927500.0,-74.527885
86930000.0,-74.66618
86932500.0,-74.74099
86935000.0,-74.714264
86937500.0,-74.711876
86940000.0,-74.78589
86942500.0,-74.7444
86945000.0,-74.73696
86947500.0,-74.70293
86950000.0,-74.63268
86952500.0,-74.619576
86955000.0,-74.72196
86957500.0,-74.67365
86960000.0,-74.686714
86962500.0,-74.693214
86965000.0,-74.64003
86967500.0,-74.631966
86970000.0,-74.62805
86972500.0,-74.6644
86975000.0,-74.688324
86977500.0,-74.65768
86980000.0,-74.689545
86982500.0,-74.66377
86985000.0,-74.64827
86987500.0,-74.71048
86990000.0,-74.69973
86992500.0,-74.674446
86995000.0,-74.63223
86997500.0,-74.62552
87000000.0,-74.47049
87002500.0,-74.54679
87005000.0,-74.66008
87007500.0,-74.77065
87010000.0,-74.776276
87012500.0,-74.72308
87015000.0,-74.75989
87017500.0,-74.69125
87020000.0,-74.7465
87022500.0,-74.82883
87025000.0,-74.70513
87027500.0,-74.689095
87030000.0,-74.69475
87032500.0,-74.63931
87035000.0,-74.746414
87037500.0,-74.74944
87040000.0,-74.76661
87042500.0,-74.77213
87045000.0,-74.69869
87047500.0,-74.60338
87050000.0,-74.82677
87052500.0,-74.899086
87055000.0,-74.73825
87057500.0,-74.71823
87060000.0,-74.60755
87062500.0,-74.45693
87065000.0,-74.339676
87067500.0,-73.93733
87070000.0,-73.29489
87072500.0,-73.28475
87075000.0,-73.62082
87077500.0,-73.71253
87080000.0,-74.12281
87082500.0,-74.43772
87085000.0,-74.63782
87087500.0,-74.769035
87090000.0,-74.69634
87092500.0,-74.62354
87095000.0,-74.66835
87097500.0,-74.73831
87100000.0,-74.67337
87102500.0,-74.79357
87105000.0,-74.81581
87107500.0,-74.85956
87110000.0,-74.69763
87112500.0,-74.49127
87115000.0,-74.52626
87117500.0,-74.70954
87120000.0,-74.713554
87122500.0,-74.79669
87125000.0,-74.79064
87127500.0,-74.75016
87130000.0,-74.73579
87132500.0,-74.77794
87135000.0,-74.7045
87137500.0,-74.64319
87140000.0,-74.659874
87142500.0,-74.684784
87145000.0,-74.641884
87147500.0,-74.58426
87150000.0,-74.61597
87152500.0,-74.675835
87155000.0,-74.55887
87157500.0,-74.65788
87160000.0,-74.68896
87162500.0,-74.705444
87165000.0,-74.77691
87167500.0,-74.74707
87170000.0,-74.677376
87172500.0,-74.66814
87175000.0,-74.64738
87177500.0,-74.72344
87180000.0,-74.75275
87182500.0,-74.70888
87185000.0,-74.6599
87187500.0,-74.65398
87190000.0,-74.69997
87192500.0,-74.660805
87195000.0,-74.65402
87197500.0,-74.703575
87200000.0,-74.74283
87202500.0,-74.82846
87205000.0,-74.73001
87207500.0,-74.68132
87210000.0,-74.65504
87212500.0,-74.68774
87215000.0,-74.757385
87217500.0,-74.80958
87220000.0,-74.7151
87222500.0,-74.78552
87225000.0,-74.82787
87227500.0,-74.803604
87230000.0,-74.76262
87232500.0,-74.76584
87235000.0,-74.62636
87237500.0,-74.65816
87240000.0,-74.78362
87242500.0,-74.78576
87245000.0,-74.71625
87247500.0,-74.75202
87250000.0,-74.67994
87252500.0,-74.77481
87255000.0,-74.84752
87257500.0,-74.77028
87260000.0,-74.62934
87262500.0,-74.58772
87265000.0,-74.725296
87267500.0,-74.79678
87270000.0,-74.83474
87272500.0,-74.83745
87275000.0,-74.862686
87277500.0,-74.72745
87280000.0,-74.65388
87282500.0,-74.682976
87285000.0,-74.74863
87287500.0,-74.68689
87290000.0,-74.6777
87292500.0,-74.71012
87295000.0,-74.6862
87297500.0,-74.6913
87300000.0,-74.65149
87302500.0,-74.76043
87305000.0,-74.78597
87307500.0,-74.75769
87310000.0,-74.73473
87312500.0,-74.63104
87315000.0,-74.62028
87317500.0,-74.63237
87320000.0,-74.77822
87322500.0,-74.80367
87325000.0,-74.66868
87327500.0,-74.62431
87330000.0,-74.7161
87332500.0,-74.75665
87335000.0,-74.76411
87337500.0,-74.67785
87340000.0,-74.714874
87342500.0,-74.80214
87345000.0,-74.75601
87347500.0,-74.759
87350000.0,-74.77764
87352500.0,-74.72191
87355000.0,-74.73672
87357500.0,-74.76803
87360000.0,-74.70718
87362500.0,-74.759186
87365000.0,-74.65785
87367500.0,-74.75116
87370000.0,-74.71325
87372500.0,-74.67023
87375000.0,-74.71905
87377500.0,-74.71413
87380000.0,-74.79475
87382500.0,-74.800735
87385000.0,-74.71323
87387500.0,-74.635315
87390000.0,-74.68504
87392500.0,-74.79661
87395000.0,-74.694916
87397500.0,-74.67722
87400000.0,-74.75055
87402500.0,-74.75449
87405000.0,-74.799934
87407500.0,-74.70773
87410000.0,-74.67162
87412500.0,-74.703995
87415000.0,-74.68326
87417500.0,-74.56565
87420000.0,-74.54646
87422500.0,-74.56358
87425000.0,-74.67099
87427500.0,-74.71734
87430000.0,-74.82026
87432500.0,-74.76522
87435000.0,-74.71448
87437500.0,-74.783676
87440000.0,-74.74884
87442500.0,-74.79135
87445000.0,-74.73696
87447500.0,-74.74176
87450000.0,-74.83598
87452500.0,-74.71158
87455000.0,-74.70554
87457500.0,-74.73388
87460000.0,-74.7574
87462500.0,-74.81872
87465000.0,-74.7388
87467500.0,-74.68821
87470000.0,-74.65919
87472500.0,-74.73527
87475000.0,-74.77714
87477500.0,-74.85094
87480000.0,-74.87069
87482500.0,-74.74257
87485000.0,-74.717026
87487500.0,-74.76173
87490000.0,-74.67019
87492500.0,-74.70647
87495000.0,-74.73036
87497500.0,-74.674545
87500000.0,-74.67449
87502500.0,-74.530556
87505000.0,-74.44449
87507500.0,-74.736755
87510000.0,-74.68407
87512500.0,-74.661575
87515000.0,-74.71397
87517500.0,-74.77896
87520000.0,-74.74698
87522500.0,-74.69024
87525000.0,-74.79814
87527500.0,-74.80247
87530000.0,-74.725945
87532500.0,-74.658875
87535000.0,-74.68979
87537500.0,-74.75716
87540000.0,-74.65961
87542500.0,-74.80572
87545000.0,-74.84467
87547500.0,-74.74623
87550000.0,-74.69435
87552500.0,-74.78374
87555000.0,-74.85116
87557500.0,-74.82549
87560000.0,-74.7413
87562500.0,-74.613
87565000.0,-74.58696
87567500.0,-74.48636
87570000.0,-74.474236
87572500.0,-74.59504
87575000.0,-74.50244
87577500.0,-74.40662
87580000.0,-74.38976
87582500.0,-74.43101
87585000.0,-74.61963
87587500.0,-74.736725
87590000.0,-74.63805
87592500.0,-74.6161
87595000.0,-74.65344
87597500.0,-74.73732
87600000.0,-74.8025
87602500.0,-74.84943
87605000.0,-74.81661
87607500.0,-74.69885
87610000.0,-74.79699
87612500.0,-74.785446
87615000.0,-74.81409
87617500.0,-74.70314
87620000.0,-74.69572
87622500.0,-74.83186
87625000.0,-74.9078
87627500.0,-74.80866
87630000.0,-74.71613
87632500.0,-74.73443
87635000.0,-74.8203
87637500.0,-74.7794
87640000.0,-74.80385
87642500.0,-74.72273
87645000.0,-74.82753
87647500.0,-74.82948
87650000.0,-74.738
87652500.0,-74.769264
87655000.0,-74.769424
87657500.0,-74.773056
87660000.0,-74.68424
87662500.0,-74.66128
87665000.0,-74.71961
87667500.0,-74.712105
87670000.0,-74.76632
87672500.0,-74.82207
87675000.0,-74.7563
87677500.0,-74.67261
87680000.0,-74.709366
87682500.0,-74.80413
87685000.0,-74.74547
87687500.0,-74.76838
87690000.0,-74.73807
87692500.0,-74.678734
87695000.0,-74.65218
87697500.0,-74.6959
87700000.0,-74.63835
87702500.0,-74.72377
87705000.0,-74.75145
87707500.0,-74.8186
87710000.0,-74.804405
87712500.0,-74.86602
87715000.0,-74.7807
87717500.0,-74.80498
87720000.0,-74.81549
87722500.0,-74.773544
87725000.0,-74.7425
87727500.0,-74.84034
87730000.0,-74.69849
87732500.0,-74.68166
87735000.0,-74.79814
87737500.0,-74.7645
87740000.0,-74.63976
87742500.0,-74.69947
87745000.0,-74.71042
87747500.0,-74.72164
87750000.0,-74.67864
87752500.0,-74.70125
87755000.0,-74.71866
87757500.0,-74.76403
87760000.0,-74.719666
87762500.0,-74.76382
87765000.0,-74.7018
87767500.0,-74.71048
87770000.0,-74.74171
87772500.0,-74.7799
87775000.0,-74.71343
87777500.0,-74.62065
87780000.0,-74.659515
87782500.0,-74.73709
87785000.0,-74.67669
87787500.0,-74.735954
87790000.0,-74.742096
87792500.0,-74.68061
87795000.0,-74.63399
87797500.0,-74.77598
87800000.0,-74.81475
87802500.0,-74.795296
87805000.0,-74.69893
87807500.0,-74.65776
87810000.0,-74.7575
87812500.0,-74.77277
87815000.0,-74.79593
87817500.0,-74.78671
87820000.0,-74.732315
87822500.0,-74.667465
87825000.0,-74.66067
87827500.0,-74.67395
87830000.0,-74.74184
87832500.0,-74.72079
87835000.0,-74.755196
87837500.0,-74.75412
87840000.0,-74.78938
87842500.0,-74.75156
87845000.0,-74.66069
87847500.0,-74.73625
87850000.0,-74.71048
87852500.0,-74.65947
87855000.0,-74.71309
87857500.0,-74.83177
87860000.0,-74.82532
87862500.0,-74.69602
87865000.0,-74.71013
87867500.0,-74.77106
87870000.0,-74.79685
87872500.0,-74.78473
87875000.0,-74.85133
87877500.0,-74.747246
87880000.0,-74.746
87882500.0,-74.70957
87885000.0,-74.64393
87887500.0,-74.696045
87890000.0,-74.72741
87892500.0,-74.73308
87895000.0,-74.68318
87897500.0,-74.681816
87900000.0,-74.72106
87902500.0,-74.68142
87905000.0,-74.663795
87907500.0,-74.65788
87910000.0,-74.68695
87912500.0,-74.67576
87915000.0,-74.74348
87917500.0,-74.72638
87920000.0,-74.64581
87922500.0,-74.50606
87925000.0,-74.59927
87927500.0,-74.61833
87930000.0,-74.60719
87932500.0,-74.65454
87935000.0,-74.67288
87937500.0,-74.63224
87940000.0,-74.630745
87942500.0,-74.73799
87945000.0,-74.787224
87947500.0,-74.69178
87950000.0,-74.65224
87952500.0,-74.68031
87955000.0,-74.59498
87957500.0,-74.61236
87960000.0,-74.615524
87962500.0,-74.58029
87965000.0,-74.65737
87967500.0,-74.60962
87970000.0,-74.54984
87972500.0,-74.55308
87975000.0,-74.48914
87977500.0,-74.36496
87980000.0,-74.17542
87982500.0,-74.22454
87985000.0,-74.27729
87987500.0,-74.13857
87990000.0,-74.047005
87992500.0,-73.89896
87995000.0,-73.51899
87997500.0,-73.48241
88000000.0,-77.44185
88002500.0,-73.54122
88005000.0,-73.48512
88007500.0,-73.948425
88010000.0,-74.07208
88012500.0,-74.133064
88015000.0,-74.3029
88017500.0,-74.30846
88020000.0,-74.32474
88022500.0,-74.41741
88025000.0,-74.515015
88027500.0,-74.504425
88030000.0,-74.5461
88032500.0,-74.6033
88035000.0,-74.55105
88037500.0,-74.497284
88040000.0,-74.6044
88042500.0,-74.59145
88045000.0,-74.65605
88047500.0,-74.732765
88050000.0,-74.62386
88052500.0,-74.7181
88055000.0,-74.81768
88057500.0,-74.70411
88060000.0,-74.63138
88062500.0,-74.6424
88065000.0,-74.66247
88067500.0,-74.66536
88070000.0,-74.651115
88072500.0,-74.69168
88075000.0,-74.61507
88077500.0,-74.53923
88080000.0,-74.640236
88082500.0,-74.6721
88085000.0,-74.72794
88087500.0,-74.70756
88090000.0,-74.66711
88092500.0,-74.74628
88095000.0,-74.74797
88097500.0,-74.80744
88100000.0,-74.789116
88102500.0,-74.78064
88105000.0,-74.78588
88107500.0,-74.67685
88110000.0,-74.59773
88112500.0,-74.683205
88115000.0,-74.671394
88117500.0,-74.67259
88120000.0,-74.806885
88122500.0,-74.76781
88125000.0,-74.813034
88127500.0,-74.81809
88130000.0,-74.78547
88132500.0,-74.75838
88135000.0,-74.6684
88137500.0,-74.69685
88140000.0,-74.81521
88142500.0,-74.726974
88145000.0,-74.59009
88147500.0,-74.64783
88150000.0,-74.72237
88152500.0,-74.79944
88155000.0,-74.75448
88157500.0,-74.769
88160000.0,-74.746
88162500.0,-74.69108
88165000.0,-74.71417
88167500.0,-74.7118
88170000.0,-74.82994
88172500.0,-74.72686
88175000.0,-74.69865
88177500.0,-74.78555
88180000.0,-74.82494
88182500.0,-74.76596
88185000.0,-74.7119
88187500.0,-74.70027
88190000.0,-74.65204
88192500.0,-74.62226
88195000.0,-74.66928
88197500.0,-74.768234
88200000.0,-74.78206
88202500.0,-74.75973
88205000.0,-74.64546
88207500.0,-74.62075
88210000.0,-74.70916
88212500.0,-74.709274
88215000.0,-74.66494
88217500.0,-74.70865
88220000.0,-74.6615
88222500.0,-74.62327
88225000.0,-74.76163
88227500.0,-74.7663
88230000.0,-74.653076
88232500.0,-74.64636
88235000.0,-74.6743
88237500.0,-74.71563
88240000.0,-74.78989
88242500.0,-74.76647
88245000.0,-74.6971
88247500.0,-74.7739
88250000.0,-74.75535
88252500.0,-74.74103
88255000.0,-74.731094
88257500.0,-74.65579
88260000.0,-74.61032
88262500.0,-74.718254
88265000.0,-74.75402
88267500.0,-74.63359
88270000.0,-74.65117
88272500.0,-74.772736
88275000.0,-74.64026
88277500.0,-74.67963
88280000.0,-74.77962
88282500.0,-74.709694
88285000.0,-74.73569
88287500.0,-74.73776
88290000.0,-74.669945
88292500.0,-74.790794
88295000.0,-74.75941
88297500.0,-74.679436
88300000.0,-74.68057
88302500.0,-74.71768
88305000.0,-74.73875
88307500.0,-74.76556
88310000.0,-74.74836
88312500.0,-74.77271
88315000.0,-74.78277
88317500.0,-74.81889
88320000.0,-74.672035
88322500.0,-74.737045
88325000.0,-74.80174
88327500.0,-74.69616
88330000.0,-74.634125
88332500.0,-74.674416
88335000.0,-74.69894
88337500.0,-74.64216
88340000.0,-74.670204
88342500.0,-74.71158
88345000.0,-74.74235
88347500.0,-74.74366
88350000.0,-74.74585
88352500.0,-74.82976
88355000.0,-74.80068
88357500.0,-74.77489
88360000.0,-74.79749
88362500.0,-74.77376
88365000.0,-74.77761
88367500.0,-74.74318
88370000.0,-74.75872
88372500.0,-74.73411
88375000.0,-74.74071
88377500.0,-74.786285
88380000.0,-74.73321
88382500.0,-74.74591
88385000.0,-74.80261
88387500.0,-74.76018
88390000.0,-74.77052
88392500.0,-74.65483
88395000.0,-74.737625
88397500.0,-74.7738
88400000.0,-74.69827
88402500.0,-74.79836
88405000.0,-74.7615
88407500.0,-74.6678
88410000.0,-74.528275
88412500.0,-74.417656
88415000.0,-74.20012
88417500.0,-73.76058
88420000.0,-73.45914
88422500.0,-73.29751
88425000.0,-73.339806
88427500.0,-73.290726
88430000.0,-73.322624
88432500.0,-73.71321
88435000.0,-74.16889
88437500.0,-74.467155
88440000.0,-74.584366
88442500.0,-74.708984
88445000.0,-74.75873
88447500.0,-74.793106
88450000.0,-74.71338
88452500.0,-74.71335
88455000.0,-74.78024
88457500.0,-74.791214
88460000.0,-74.69381
88462500.0,-74.72357
88465000.0,-74.63126
88467500.0,-74.55772
88470000.0,-74.65035
88472500.0,-74.75248
88475000.0,-74.74884
88477500.0,-74.805984
88480000.0,-74.8002
88482500.0,-74.736984
88485000.0,-74.65254
88487500.0,-74.708
88490000.0,-74.65671
88492500.0,-74.73379
88495000.0,-74.72044
88497500.0,-74.73695
88500000.0,-74.717896
88502500.0,-74.69853
88505000.0,-74.69537
88507500.0,-74.73288
88510000.0,-74.73423
88512500.0,-74.79217
88515000.0,-74.76077
88517500.0,-74.8198
88520000.0,-74.78941
88522500.0,-74.83894
88525000.0,-74.80584
88527500.0,-74.80005
88530000.0,-74.78097
88532500.0,-74.71808
88535000.0,-74.78224
88537500.0,-74.86672
88540000.0,-74.73352
88542500.0,-74.70746
88545000.0,-74.67977
88547500.0,-74.78197
88550000.0,-74.838776
88552500.0,-74.73354
88555000.0,-74.78949
88557500.0,-74.78673
88560000.0,-74.74232
88562500.0,-74.64234
88565000.0,-74.6626
88567500.0,-74.77241
88570000.0,-74.773224
88572500.0,-74.78093
88575000.0,-74.63256
88577500.0,-74.55394
88580000.0,-74.58881
88582500.0,-74.68717
88585000.0,-74.72188
88587500.0,-74.7609
88590000.0,-74.795616
88592500.0,-74.79265
88595000.0,-74.7291
88597500.0,-74.66547
88600000.0,-74.69092
88602500.0,-74.63781
88605000.0,-74.6842
88607500.0,-74.76487
88610000.0,-74.73224
88612500.0,-74.579
88615000.0,-74.64997
88617500.0,-74.73626
88620000.0,-74.78364
88622500.0,-74.67483
88625000.0,-74.657104
88627500.0,-74.717926
88630000.0,-74.71034
88632500.0,-74.77821
88635000.0,-74.76984
88637500.0,-74.77618
88640000.0,-74.739265
88642500.0,-74.83875
88645000.0,-74.84641
88647500.0,-74.78672
88650000.0,-74.693344
88652500.0,-74.66943
88655000.0,-74.674774
88657500.0,-74.67998
88660000.0,-74.62852
88662500.0,-74.67043
88665000.0,-74.7395
88667500.0,-74.72139
88670000.0,-74.63931
88672500.0,-74.59977
88675000.0,-74.70626
88677500.0,-74.68067
88680000.0,-74.661705
88682500.0,-74.691246
88685000.0,-74.754616
88687500.0,-74.74873
88690000.0,-74.742935
88692500.0,-74.73558
88695000.0,-74.74675
88697500.0,-74.73214
88700000.0,-74.719406
88702500.0,-74.75105
88705000.0,-74.81988
88707500.0,-74.8022
88710000.0,-74.66005
88712500.0,-74.63851
88715000.0,-74.72952
88717500.0,-74.70908
88720000.0,-74.663
88722500.0,-74.66696
88725000.0,-74.764534
88727500.0,-74.69486
88730000.0,-74.74216
88732500.0,-74.67365
88735000.0,-74.72916
88737500.0,-74.706795
88740000.0,-74.66284
88742500.0,-74.738625
88745000.0,-74.78127
88747500.0,-74.78841
88750000.0,-74.80279
88752500.0,-74.82721
88755000.0,-74.77578
88757500.0,-74.83942
88760000.0,-74.77019
88762500.0,-74.71547
88765000.0,-74.78656
88767500.0,-74.82967
88770000.0,-74.73916
88772500.0,-74.76683
88775000.0,-74.77275
88777500.0,-74.74169
88780000.0,-74.77548
88782500.0,-74.84343
88785000.0,-74.7489
88787500.0,-74.642265
88790000.0,-74.650085
88792500.0,-74.67383
88795000.0,-74.75252
88797500.0,-74.784615
88800000.0,-74.803406
88802500.0,-74.69192
88805000.0,-74.5849
88807500.0,-74.6455
88810000.0,-74.68499
88812500.0,-74.649345
88815000.0,-74.74158
88817500.0,-74.65413
88820000.0,-74.68022
88822500.0,-74.627144
88825000.0,-74.6088
88827500.0,-74.70825
88830000.0,-74.77167
88832500.0,-74.713066
88835000.0,-74.73133
88837500.0,-74.76885
88840000.0,-74.76522
88842500.0,-74.66156
88845000.0,-74.5481
88847500.0,-74.62521
88850000.0,-74.66828
88852500.0,-74.598816
88855000.0,-74.681366
88857500.0,-74.75472
88860000.0,-74.72029
88862500.0,-74.75172
88865000.0,-74.72797
88867500.0,-74.72514
88870000.0,-74.680786
88872500.0,-74.70694
88875000.0,-74.73838
88877500.0,-74.71504
88880000.0,-74.665405
88882500.0,-74.62298
88885000.0,-74.66922
88887500.0,-74.57563
88890000.0,-74.56587
88892500.0,-74.68338
88895000.0,-74.72033
88897500.0,-74.773315
88900000.0,-74.70017
88902500.0,-74.72629
88905000.0,-74.723724
88907500.0,-74.63912
88910000.0,-74.62486
88912500.0,-74.598404
88915000.0,-74.351715
88917500.0,-73.86207
88920000.0,-72.64722
88922500.0,-71.34446
88925000.0,-70.95183
88927500.0,-70.19831
88930000.0,-70.18422
88932500.0,-71.812965
88935000.0,-73.043335
88937500.0,-73.65197
88940000.0,-74.343185
88942500.0,-74.53421
88945000.0,-74.60563
88947500.0,-74.73476
88950000.0,-74.80485
88952500.0,-74.72123
88955000.0,-74.796005
88957500.0,-74.91881
88960000.0,-74.86789
88962500.0,-74.7791
88965000.0,-74.73537
88967500.0,-74.75678
88970000.0,-74.74814
88972500.0,-74.643005
88975000.0,-74.64744
88977500.0,-74.80025
88980000.0,-74.66087
88982500.0,-74.529755
88985000.0,-74.51784
88987500.0,-74.56811
88990000.0,-74.634605
88992500.0,-74.63414
88995000.0,-74.59489
88997500.0,-74.57656
89000000.0,-74.531006
89002500.0,-74.563965
89005000.0,-74.60263
89007500.0,-74.679504
89010000.0,-74.6523
89012500.0,-74.56696
89015000.0,-74.64345
89017500.0,-74.778496
89020000.0,-74.722626
89022500.0,-74.62742
89025000.0,-74.60381
89027500.0,-74.60262
89030000.0,-74.57449
89032500.0,-74.619606
89035000.0,-74.706116
89037500.0,-74.71665
89040000.0,-74.34312
89042500.0,-74.551956
89045000.0,-74.67539
89047500.0,-74.640686
89050000.0,-74.64319
89052500.0,-74.71644
89055000.0,-74.713875
89057500.0,-74.658554
89060000.0,-74.64064
89062500.0,-74.69594
89065000.0,-74.707245
89067500.0,-74.70682
89070000.0,-74.65871
89072500.0,-74.36003
89075000.0,-74.190895
89077500.0,-74.36966
89080000.0,-74.538414
89082500.0,-74.641106
89085000.0,-74.65068
89087500.0,-74.64684
89090000.0,-74.63875
89092500.0,-74.67546
89095000.0,-74.64575
89097500.0,-74.610886
89100000.0,-74.66915
89102500.0,-74.57003
89105000.0,-74.60982
89107500.0,-74.72926
89110000.0,-74.7074
89112500.0,-74.64893
89115000.0,-74.71041
89117500.0,-74.85976
89120000.0,-74.761116
89122500.0,-74.696205
89125000.0,-74.66748
89127500.0,-74.65436
89130000.0,-74.70168
89132500.0,-74.62073
89135000.0,-74.60939
89137500.0,-74.64543
89140000.0,-74.65209
89142500.0,-74.71321
89145000.0,-74.73074
89147500.0,-74.72902
89150000.0,-74.64268
89152500.0,-74.64362
89155000.0,-74.712814
89157500.0,-74.65479
89160000.0,-74.60511
89162500.0,-74.60971
89165000.0,-74.53108
89167500.0,-74.61231
89170000.0,-74.56533
89172500.0,-74.65507
89175000.0,-74.6375
89177500.0,-74.565315
89180000.0,-74.70706
89182500.0,-74.77728
89185000.0,-74.65491
89187500.0,-74.64884
89190000.0,-74.57985
89192500.0,-74.54498
89195000.0,-74.63552
89197500.0,-74.67731
89200000.0,-74.66869
89202500.0,-74.66633
89205000.0,-74.73997
89207500.0,-74.76964
89210000.0,-74.70859
89212500.0,-74.59694
89215000.0,-74.70531
89217500.0,-74.680435
89220000.0,-74.60107
89222500.0,-74.4822
89225000.0,-74.48495
89227500.0,-74.49154
89230000.0,-74.55023
89232500.0,-74.541595
89235000.0,-74.66148
89237500.0,-74.68335
89240000.0,-74.58428
89242500.0,-74.5638
89245000.0,-74.54654
89247500.0,-74.602135
89250000.0,-74.44417
89252500.0,-74.62157
89255000.0,-74.67948
89257500.0,-74.618004
89260000.0,-74.59459
89262500.0,-74.56783
89265000.0,-74.559845
89267500.0,-74.52645
89270000.0,-74.66357
89272500.0,-74.7491
89275000.0,-74.60778
89277500.0,-74.667816
89280000.0,-74.54686
89282500.0,-74.62645
89285000.0,-74.66765
89287500.0,-74.627464
89290000.0,-74.59271
89292500.0,-74.58635
89295000.0,-74.56689
89297500.0,-74.63395
89300000.0,-74.70063
89302500.0,-74.53416
89305000.0,-74.542404
89307500.0,-74.7248
89310000.0,-74.66988
89312500.0,-74.658104
89315000.0,-74.56331
89317500.0,-74.62311
89320000.0,-74.618004
89322500.0,-74.65924
89325000.0,-74.56669
89327500.0,-74.55011
89330000.0,-74.52349
89332500.0,-74.53466
89335000.0,-74.66017
89337500.0,-74.56977
89340000.0,-74.56509
89342500.0,-74.59962
89345000.0,-74.51435
89347500.0,-74.50906
89350000.0,-74.576935
89352500.0,-74.61704
89355000.0,-74.56589
89357500.0,-74.561905
89360000.0,-74.59186
89362500.0,-74.5364
89365000.0,-74.58492
89367500.0,-74.63615
89370000.0,-74.69629
89372500.0,-74.75214
89375000.0,-74.73836
89377500.0,-74.69697
89380000.0,-74.646805
89382500.0,-74.577065
89385000.0,-74.556625
89387500.0,-74.599754
89390000.0,-74.64688
89392500.0,-74.54761
89395000.0,-74.6688
89397500.0,-74.736046
89400000.0,-74.69008
89402500.0,-74.66008
89405000.0,-74.61949
89407500.0,-74.71906
89410000.0,-74.753044
89412500.0,-74.811455
89415000.0,-74.67906
89417500.0,-74.63326
89420000.0,-74.59769
89422500.0,-74.61068
89425000.0,-74.61899
89427500.0,-74.58931
89430000.0,-74.57855
89432500.0,-74.587204
89435000.0,-74.55708
89437500.0,-74.664925
89440000.0,-74.554565
89442500.0,-74.54683
89445000.0,-74.59435
89447500.0,-74.652145
89450000.0,-74.55433
89452500.0,-74.50364
89455000.0,-74.56941
89457500.0,-74.68788
89460000.0,-74.51454
89462500.0,-74.47642
89465000.0,-74.60324
89467500.0,-74.640366
89470000.0,-74.70844
89472500.0,-74.67033
89475000.0,-74.552414
89477500.0,-74.50516
89480000.0,-74.46563
89482500.0,-74.611145
89485000.0,-74.64383
89487500.0,-74.62969
89490000.0,-74.550644
89492500.0,-74.50914
89495000.0,-74.52182
89497500.0,-74.56115
89500000.0,-74.527756
89502500.0,-74.550415
89505000.0,-74.66874
89507500.0,-74.63516
89510000.0,-74.48081
89512500.0,-74.54784
89515000.0,-74.54954
89517500.0,-74.51571
89520000.0,-74.54898
89522500.0,-74.61183
89525000.0,-74.65351
89527500.0,-74.66464
89530000.0,-74.59372
89532500.0,-74.56191
89535000.0,-74.55357
89537500.0,-74.479515
89540000.0,-74.542305
89542500.0,-74.515274
89545000.0,-74.57617
89547500.0,-74.55575
89550000.0,-74.54585
89552500.0,-74.659744
89555000.0,-74.613914
89557500.0,-74.63989
89560000.0,-74.6398
89562500.0,-74.529526
89565000.0,-74.496346
89567500.0,-74.56166
89570000.0,-74.5086
89572500.0,-74.4259
89575000.0,-74.64381
89577500.0,-74.73067
89580000.0,-74.57694
89582500.0,-74.53468
89585000.0,-74.614
89587500.0,-74.59612
89590000.0,-74.504105
89592500.0,-74.52051
89595000.0,-74.60778
89597500.0,-74.55257
89600000.0,-74.551094
89602500.0,-74.568275
89605000.0,-74.4707
89607500.0,-74.54216
89610000.0,-74.59963
89612500.0,-74.59743
89615000.0,-74.62241
89617500.0,-74.64519
89620000.0,-74.6083
89622500.0,-74.52236
89625000.0,-74.51289
89627500.0,-74.592995
89630000.0,-74.55009
89632500.0,-74.56177
89635000.0,-74.52575
89637500.0,-74.60354
89640000.0,-74.5229
89642500.0,-74.54331
89645000.0,-74.538315
89647500.0,-74.49045
89650000.0,-74.43556
89652500.0,-74.48997
89655000.0,-74.5072
89657500.0,-74.53206
89660000.0,-74.59354
89662500.0,-74.55147
89665000.0,-74.48918
89667500.0,-74.5145
89670000.0,-74.54496
89672500.0,-74.590744
89675000.0,-74.62258
89677500.0,-74.562904
89680000.0,-74.43732
89682500.0,-74.50804
89685000.0,-74.6319
89687500.0,-74.668915
89690000.0,-74.645584
89692500.0,-74.68718
89695000.0,-74.55797
89697500.0,-74.51109
89700000.0,-74.6049
89702500.0,-74.479675
89705000.0,-74.48774
89707500.0,-74.56775
89710000.0,-74.50208
89712500.0,-74.48384
89715000.0,-74.593864
89717500.0,-74.58335
89720000.0,-74.43694
89722500.0,-74.53232
89725000.0,-74.615395
89727500.0,-74.49762
89730000.0,-74.575264
89732500.0,-74.526505
89735000.0,-74.54781
89737500.0,-74.62145
89740000.0,-74.63791
89742500.0,-74.61228
89745000.0,-74.58605
89747500.0,-74.55548
89750000.0,-74.590385
89752500.0,-74.53165
89755000.0,-74.529045
89757500.0,-74.52783
89760000.0,-74.517685
89762500.0,-74.40414
89765000.0,-74.2888
89767500.0,-74.23891
89770000.0,-74.31632
89772500.0,-74.3282
89775000.0,-74.08415
89777500.0,-73.836044
89780000.0,-73.771866
89782500.0,-73.82875
89785000.0,-74.01541
89787500.0,-74.303734
89790000.0,-74.46393
89792500.0,-74.46149
89795000.0,-74.504036
89797500.0,-74.50463
89800000.0,-74.56801
89802500.0,-74.546005
89805000.0,-74.6055
89807500.0,-74.53951
89810000.0,-74.49153
89812500.0,-74.55005
89815000.0,-74.51522
89817500.0,-74.589554
89820000.0,-74.6096
89822500.0,-74.51779
89825000.0,-74.50866
89827500.0,-74.43004
89830000.0,-74.441666
89832500.0,-74.41428
89835000.0,-74.40416
89837500.0,-74.500404
89840000.0,-74.61866
89842500.0,-74.636505
89845000.0,-74.56113
89847500.0,-74.46977
89850000.0,-74.59485
89852500.0,-74.64562
89855000.0,-74.565094
89857500.0,-74.59324
89860000.0,-74.52542
89862500.0,-74.48331
89865000.0,-74.52531
89867500.0,-74.579025
89870000.0,-74.5824
89872500.0,-74.49855
89875000.0,-74.47015
89877500.0,-74.50444
89880000.0,-74.51494
89882500.0,-74.59302
89885000.0,-74.64355
89887500.0,-74.47892
89890000.0,-74.56947
89892500.0,-74.47859
89895000.0,-74.461044
89897500.0,-74.50764
89900000.0,-74.62611
89902500.0,-74.58159
89905000.0,-74.49296
89907500.0,-74.39895
89910000.0,-74.42077
89912500.0,-74.369545
89915000.0,-73.488396
89917500.0,-70.955605
89920000.0,-69.14522
89922500.0,-66.870636
89925000.0,-65.46251
89927500.0,-67.49702
89930000.0,-70.40587
89932500.0,-71.280106
89935000.0,-72.902084
89937500.0,-74.2521
89940000.0,-74.357346
89942500.0,-74.48331
89945000.0,-74.50394
89947500.0,-74.47836
89950000.0,-74.48707
89952500.0,-74.57373
89955000.0,-74.6467
89957500.0,-74.53349
89960000.0,-74.537735
89962500.0,-74.51043
89965000.0,-74.55807
89967500.0,-74.5022
89970000.0,-74.49678
89972500.0,-74.491455
89975000.0,-74.493164
89977500.0,-74.48828
89980000.0,-74.55314
89982500.0,-74.683754
89985000.0,-74.58942
89987500.0,-74.49316
89990000.0,-74.56387
89992500.0,-74.51333
89995000.0,-74.47859
89997500.0,-73.428246
90000000.0,-71.3275
90002500.0,-73.521126
90005000.0,-74.689896
90007500.0,-74.64113
90010000.0,-74.58854
90012500.0,-74.54352
90015000.0,-74.416084
90017500.0,-74.42831
90020000.0,-74.519585
90022500.0,-74.492386
90025000.0,-74.5641
90027500.0,-74.6606
90030000.0,-74.55252
90032500.0,-74.45364
90035000.0,-74.50996
90037500.0,-74.50225
90040000.0,-74.54278
90042500.0,-74.58581
90045000.0,-74.511406
90047500.0,-74.460846
90050000.0,-74.53809
90052500.0,-74.44474
90055000.0,-74.276276
90057500.0,-74.15677
90060000.0,-74.30955
90062500.0,-74.18425
90065000.0,-74.066666
90067500.0,-74.25871
90070000.0,-74.26332
90072500.0,-74.24541
90075000.0,-74.30024
90077500.0,-74.396736
90080000.0,-74.35586
90082500.0,-74.31822
90085000.0,-74.33478
90087500.0,-74.408295
90090000.0,-74.49268
90092500.0,-74.51153
90095000.0,-74.489716
90097500.0,-74.47171
90100000.0,-74.496025
90102500.0,-74.403046
90105000.0,-74.47541
90107500.0,-74.43693
90110000.0,-74.48724
90112500.0,-74.45489
90115000.0,-74.37815
90117500.0,-74.371254
90120000.0,-74.42961
90122500.0,-74.47022
90125000.0,-74.5295
90127500.0,-74.4258
90130000.0,-74.304306
90132500.0,-74.2964
90135000.0,-74.43427
90137500.0,-74.4737
90140000.0,-74.46787
90142500.0,-74.39542
90145000.0,-74.40797
90147500.0,-74.47954
90150000.0,-74.462364
90152500.0,-74.557274
90155000.0,-74.66077
90157500.0,-74.533
90160000.0,-74.37626
90162500.0,-74.40805
90165000.0,-74.494484
90167500.0,-74.56563
90170000.0,-74.48581
90172500.0,-74.523865
90175000.0,-74.52261
90177500.0,-74.55315
90180000.0,-74.525215
90182500.0,-74.55349
90185000.0,-74.550514
90187500.0,-74.51353
90190000.0,-74.520546
90192500.0,-74.52153
90195000.0,-74.503334
90197500.0,-74.558075
90200000.0,-74.59959
90202500.0,-74.62441
90205000.0,-74.55399
90207500.0,-74.511635
90210000.0,-74.48636
90212500.0,-74.48559
90215000.0,-74.693436
90217500.0,-74.756836
90220000.0,-74.55255
90222500.0,-74.45474
90225000.0,-74.45092
90227500.0,-74.52193
90230000.0,-74.5221
90232500.0,-74.50926
90235000.0,-74.50571
90237500.0,-74.53085
90240000.0,-74.57244
90242500.0,-74.58292
90245000.0,-74.423775
90247500.0,-74.53958
90250000.0,-74.530235
90252500.0,-74.43278
90255000.0,-74.50708
90257500.0,-74.58535
90260000.0,-74.58897
90262500.0,-74.54238
90265000.0,-74.54369
90267500.0,-74.57573
90270000.0,-74.55675
90272500.0,-74.60863
90275000.0,-74.60037
90277500.0,-74.5938
90280000.0,-74.55287
90282500.0,-74.565956
90285000.0,-74.53216
90287500.0,-74.45639
90290000.0,-74.52933
90292500.0,-74.50481
90295000.0,-74.57348
90297500.0,-74.5838
90300000.0,-74.570305
90302500.0,-74.58767
90305000.0,-74.54062
90307500.0,-74.53231
90310000.0,-74.63647
90312500.0,-74.45272
90315000.0,-74.41614
90317500.0,-74.533226
90320000.0,-74.58089
90322500.0,-74.48001
90325000.0,-74.37078
90327500.0,-74.506714
90330000.0,-74.55598
90332500.0,-74.47073
90335000.0,-74.40624
90337500.0,-74.4534
90340000.0,-74.45218
90342500.0,-74.50969
90345000.0,-74.432365
90347500.0,-74.385284
90350000.0,-74.48734
90352500.0,-74.625824
90355000.0,-74.521454
90357500.0,-74.49024
90360000.0,-74.433754
90362500.0,-74.52467
90365000.0,-74.584724
90367500.0,-74.55895
90370000.0,-74.58811
90372500.0,-74.488
90375000.0,-74.56379
90377500.0,-74.57109
90380000.0,-74.606964
90382500.0,-74.55847
90385000.0,-74.547935
90387500.0,-74.57572
90390000.0,-74.59303
90392500.0,-74.63411
90395000.0,-74.61886
90397500.0,-74.54786
90400000.0,-74.49827
90402500.0,-74.44893
90405000.0,-74.47791
90407500.0,-74.41369
90410000.0,-74.50376
90412500.0,-74.59126
90415000.0,-74.565186
90417500.0,-74.508896
90420000.0,-74.57899
90422500.0,-74.507164
90425000.0,-74.4613
90427500.0,-74.50647
90430000.0,-74.56326
90432500.0,-74.63095
90435000.0,-74.48746
90437500.0,-74.508026
90440000.0,-74.68166
90442500.0,-74.699005
90445000.0,-74.6425
90447500.0,-74.6793
90450000.0,-74.63794
90452500.0,-74.47219
90455000.0,-74.51968
90457500.0,-74.55085
90460000.0,-74.649895
90462500.0,-74.73473
90465000.0,-74.675606
90467500.0,-74.56086
90470000.0,-74.54841
90472500.0,-74.48309
90475000.0,-74.43983
90477500.0,-74.53874
90480000.0,-74.62006
90482500.0,-74.66752
90485000.0,-74.590515
90487500.0,-74.66216
90490000.0,-74.740204
90492500.0,-74.58427
90495000.0,-74.52877
90497500.0,-74.42356
